Frecuencia(Hz),"	mm/Seg(PC)"
0.3125,0.056173
0.46875,0.056173
0.625,0.110702
0.78125,0.094809
0.9375,0.103577
1.09375,0.056173
1.25,0.056173
1.40625,0.113442
1.5625,0.092617
1.71875,0.105221
1.875,0.113442
2.03125,0.08056
2.1875,0.070696
2.34375,0.073984
2.5,0.046308
2.65625,0.049597
2.8125,0.057269
2.96875,0.052611
3.125,0.053159
3.28125,0.057269
3.4375,0.057269
3.59375,0.048227
3.75,0.027401
3.90625,0.027264
4.0625,0.041924
4.21875,0.041376
4.375,0.053159
4.53125,0.044664
4.6875,0.029457
4.84375,0.03754
5,0.041924
5.15625,0.041924
5.3125,0.034389
5.46875,0.0348
5.625,0.038362
5.78125,0.031238
5.9375,0.021647
6.09375,0.025894
6.25,0.028634
6.40625,0.027949
6.5625,0.032197
6.71875,0.030827
6.875,0.024524
7.03125,0.016509
7.1875,0.0174
7.34375,0.020277
7.5,0.014523
7.65625,0.012057
7.8125,0.01007
7.96875,0.013153
8.125,0.016509
8.28125,0.015413
8.4375,0.014934
8.59375,0.013975
8.75,0.016989
8.90625,0.018496
9.0625,0.02014
9.21875,0.016989
9.375,0.014317
9.53125,0.016304
9.6875,0.019455
9.84375,0.019181
10,0.016509
10.15625,0.01877
10.3125,0.018496
10.46875,0.017811
10.625,0.013632
10.78125,0.010481
10.9375,0.01329
11.09375,0.009111
11.25,0.009453
11.40625,0.006987
11.5625,0.006405
11.71875,0.007809
11.875,0.007022
12.03125,0.007809
12.1875,0.007467
12.34375,0.005789
12.5,0.007364
12.65625,0.007159
12.8125,0.007261
12.96875,0.008494
13.125,0.009591
13.28125,0.01192
13.4375,0.010481
13.59375,0.008905
13.75,0.008049
13.90625,0.008255
14.0625,0.011509
14.21875,0.013084
14.375,0.009933
14.53125,0.008597
14.6875,0.008049
14.84375,0.005652
15,0.005343
15.15625,0.007467
15.3125,0.006371
15.46875,0.006234
15.625,0.005343
15.78125,0.004453
15.9375,0.003494
16.09375,0.002757
16.25,0.003511
16.40625,0.00274
16.5625,0.003237
16.71875,0.004127
16.875,0.002278
17.03125,0.002012
17.1875,0.001644
17.34375,0.0031
17.5,0.003733
17.65625,0.002098
17.8125,0.001618
17.96875,0.002569
18.125,0.003117
18.28125,0.003545
18.4375,0.002432
18.59375,0.002483
18.75,0.002432
18.90625,0.003203
19.0625,0.003425
19.21875,0.002038
19.375,0.002038
19.53125,0.003459
19.6875,0.003237
19.84375,0.002149
20,0.001952
20.15625,0.001661
20.3125,0.001687
20.46875,0.001713
20.625,0.001841
20.78125,0.001284
20.9375,0.000976
21.09375,0.001439
21.25,0.001773
21.40625,0.002098
21.5625,0.001901
21.71875,0.002432
21.875,0.00262
22.03125,0.002226
22.1875,0.002518
22.34375,0.002278
22.5,0.00131
22.65625,0.001396
22.8125,0.001524
22.96875,0.001447
23.125,0.002175
23.28125,0.002877
23.4375,0.003271
23.59375,0.003066
23.75,0.003733
23.90625,0.003322
24.0625,0.002843
24.21875,0.003579
24.375,0.011303
24.53125,0.013838
24.6875,0.006028
24.84375,0.004076
25,0.002586
25.15625,0.002483
25.3125,0.00274
25.46875,0.003374
25.625,0.002398
25.78125,0.002278
25.9375,0.002064
26.09375,0.001901
26.25,0.001464
26.40625,0.001601
26.5625,0.001687
26.71875,0.001593
26.875,0.001644
27.03125,0.001379
27.1875,0.001284
27.34375,0.001558
27.5,0.001704
27.65625,0.001447
27.8125,0.001901
27.96875,0.001713
28.125,0.002312
28.28125,0.001755
28.4375,0.00137
28.59375,0.001576
28.75,0.001593
28.90625,0.001952
29.0625,0.001841
29.21875,0.001353
29.375,0.002449
29.53125,0.003579
29.6875,0.002449
29.84375,0.002098
30,0.002098
30.15625,0.002261
30.3125,0.001507
30.46875,0.001867
30.625,0.001841
30.78125,0.001978
30.9375,0.002398
31.09375,0.002098
31.25,0.002518
31.40625,0.002149
31.5625,0.001464
31.71875,0.001952
31.875,0.002449
32.03125,0.002449
32.1875,0.001927
32.34375,0.001644
32.5,0.001524
32.65625,0.002149
32.8125,0.002064
32.96875,0.002757
33.125,0.003271
33.28125,0.003853
33.4375,0.003117
33.59375,0.002261
33.75,0.002672
33.90625,0.00274
34.0625,0.00173
34.21875,0.001901
34.375,0.001927
34.53125,0.001644
34.6875,0.001644
34.84375,0.002432
35,0.003631
35.15625,0.004418
35.3125,0.002449
35.46875,0.001687
35.625,0.001901
35.78125,0.002363
35.9375,0.002261
36.09375,0.001978
36.25,0.002098
36.40625,0.001636
36.5625,0.001952
36.71875,0.001952
36.875,0.001601
37.03125,0.002877
37.1875,0.003048
37.34375,0.002012
37.5,0.014317
37.65625,0.023428
37.8125,0.011372
37.96875,0.006097
38.125,0.002363
38.28125,0.00262
38.4375,0.002363
38.59375,0.00274
38.75,0.00173
38.90625,0.001524
39.0625,0.001533
39.21875,0.003357
39.375,0.003733
39.53125,0.003408
39.6875,0.002518
39.84375,0.001713
40,0.001747
40.15625,0.001713
40.3125,0.002175
40.46875,0.001841
40.625,0.002175
40.78125,0.002843
40.9375,0.002209
41.09375,0.002175
41.25,0.002278
41.40625,0.002483
41.5625,0.002518
41.71875,0.003203
41.875,0.002757
42.03125,0.00179
42.1875,0.001747
42.34375,0.001978
42.5,0.002209
42.65625,0.002261
42.8125,0.001815
42.96875,0.002278
43.125,0.001678
43.28125,0.001413
43.4375,0.002124
43.59375,0.003322
43.75,0.004127
43.90625,0.002363
44.0625,0.002278
44.21875,0.002098
44.375,0.002398
44.53125,0.002432
44.6875,0.002278
44.84375,0.003374
45,0.005138
45.15625,0.004624
45.3125,0.002038
45.46875,0.003066
45.625,0.00298
45.78125,0.002175
45.9375,0.002757
46.09375,0.002792
46.25,0.002149
46.40625,0.002346
46.5625,0.004521
46.71875,0.003905
46.875,0.00596
47.03125,0.00685
47.1875,0.003408
47.34375,0.00298
47.5,0.003631
47.65625,0.004727
47.8125,0.003322
47.96875,0.003853
48.125,0.007604
48.28125,0.006371
48.4375,0.004727
48.59375,0.002843
48.75,0.003117
48.90625,0.008905
49.0625,0.008152
49.21875,0.004692
49.375,0.009933
49.53125,0.012742
49.6875,0.004299
49.84375,0.015208
50,0.022058
50.15625,0.008392
50.3125,0.003511
50.46875,0.002586
50.625,0.00262
50.78125,0.002655
50.9375,0.0031
51.09375,0.002706
51.25,0.001927
51.40625,0.001901
51.5625,0.002098
51.71875,0.002843
51.875,0.00274
52.03125,0.002012
52.1875,0.001841
52.34375,0.001687
52.5,0.001713
52.65625,0.001747
52.8125,0.002012
52.96875,0.001755
53.125,0.001447
53.28125,0.001353
53.4375,0.001927
53.59375,0.001952
53.75,0.001773
53.90625,0.002124
54.0625,0.001867
54.21875,0.001952
54.375,0.001687
54.53125,0.002038
54.6875,0.002792
54.84375,0.002672
55,0.00179
55.15625,0.001841
55.3125,0.001978
55.46875,0.002038
55.625,0.001661
55.78125,0.002149
55.9375,0.003631
56.09375,0.002757
56.25,0.002012
56.40625,0.002432
56.5625,0.002098
56.71875,0.002209
56.875,0.002064
57.03125,0.002432
57.1875,0.002843
57.34375,0.001901
57.5,0.002098
57.65625,0.003066
57.8125,0.003048
57.96875,0.002064
58.125,0.003288
58.28125,0.003066
58.4375,0.00298
58.59375,0.004025
58.75,0.003853
58.90625,0.008392
59.0625,0.006405
59.21875,0.003288
59.375,0.004299
59.53125,0.005309
59.6875,0.01007
59.84375,0.006816
60,0.007261
60.15625,0.011166
60.3125,0.008837
60.46875,0.004692
60.625,0.002124
60.78125,0.003545
60.9375,0.003853
61.09375,0.004127
61.25,0.00435
61.40625,0.002929
61.5625,0.003802
61.71875,0.003853
61.875,0.003014
62.03125,0.004967
62.1875,0.006131
62.34375,0.004076
62.5,0.004453
62.65625,0.00435
62.8125,0.004692
62.96875,0.004247
63.125,0.005035
63.28125,0.006131
63.4375,0.007707
63.59375,0.006542
63.75,0.0062
63.90625,0.00548
64.0625,0.008049
64.21875,0.007912
64.375,0.004555
64.53125,0.006576
64.6875,0.009796
64.84375,0.007809
65,0.004795
65.15625,0.017811
65.3125,0.022058
65.46875,0.010139
65.625,0.006542
65.78125,0.01007
65.9375,0.011029
66.09375,0.010824
66.25,0.010687
66.40625,0.008494
66.5625,0.010687
66.71875,0.011029
66.875,0.006405
67.03125,0.005652
67.1875,0.007261
67.34375,0.015619
67.5,0.019592
67.65625,0.023017
67.8125,0.030416
67.96875,0.011509
68.125,0.005515
68.28125,0.005652
68.4375,0.009728
68.59375,0.009796
68.75,0.007912
68.90625,0.005926
69.0625,0.00709
69.21875,0.007604
69.375,0.009591
69.53125,0.009591
69.6875,0.007261
69.84375,0.007467
70,0.008049
70.15625,0.007467
70.3125,0.007467
70.46875,0.006987
70.625,0.004727
70.78125,0.004196
70.9375,0.005035
71.09375,0.005926
71.25,0.006234
71.40625,0.008152
71.5625,0.006919
71.71875,0.003905
71.875,0.004025
72.03125,0.004299
72.1875,0.003151
72.34375,0.002312
72.5,0.002432
72.65625,0.003117
72.8125,0.00274
72.96875,0.002792
73.125,0.002569
73.28125,0.003733
73.4375,0.004727
73.59375,0.002757
73.75,0.002929
73.90625,0.003579
74.0625,0.002757
74.21875,0.002894
74.375,0.002843
74.53125,0.002449
74.6875,0.003374
74.84375,0.004418
75,0.003117
75.15625,0.004795
75.3125,0.008049
75.46875,0.018496
75.625,0.018907
75.78125,0.005309
75.9375,0.002124
76.09375,0.002569
76.25,0.0031
76.40625,0.00298
76.5625,0.003425
76.71875,0.002586
76.875,0.001576
77.03125,0.001593
77.1875,0.00298
77.34375,0.0031
77.5,0.002149
77.65625,0.001687
77.8125,0.001755
77.96875,0.001524
78.125,0.001524
78.28125,0.001464
78.4375,0.002175
78.59375,0.002672
78.75,0.001242
78.90625,0.002757
79.0625,0.00435
79.21875,0.002398
79.375,0.002124
79.53125,0.001952
79.6875,0.001636
79.84375,0.001678
80,0.001841
80.15625,0.00262
80.3125,0.00262
80.46875,0.002432
80.625,0.001815
80.78125,0.001867
80.9375,0.003374
81.09375,0.002877
81.25,0.002278
81.40625,0.002012
81.5625,0.001396
81.71875,0.001867
81.875,0.001507
82.03125,0.001379
82.1875,0.001019
82.34375,0.000886
82.5,0.001087
82.65625,0.001006
82.8125,0.001327
82.96875,0.001601
83.125,0.001661
83.28125,0.001773
83.4375,0.00155
83.59375,0.001113
83.75,0.001216
83.90625,0.001576
84.0625,0.001576
84.21875,0.000976
84.375,0.000818
84.53125,0.001173
84.6875,0.001464
84.84375,0.001199
85,0.00131
85.15625,0.001396
85.3125,0.001336
85.46875,0.001267
85.625,0.000796
85.78125,0.000933
85.9375,0.000921
86.09375,0.000963
86.25,0.001006
86.40625,0.001173
86.5625,0.001293
86.71875,0.000676
86.875,0.000775
87.03125,0.00131
87.1875,0.001327
87.34375,0.003802
87.5,0.003425
87.65625,0.001173
87.8125,0.000989
87.96875,0.000822
88.125,0.000612
88.28125,0.000531
88.4375,0.000612
88.59375,0.000698
88.75,0.000809
88.90625,0.001293
89.0625,0.001006
89.21875,0.000689
89.375,0.000655
89.53125,0.000676
89.6875,0.000552
89.84375,0.000741
90,0.000788
90.15625,0.000698
90.3125,0.000741
90.46875,0.000565
90.625,0.000963
90.78125,0.001087
90.9375,0.000933
91.09375,0.000843
91.25,0.000921
91.40625,0.000818
91.5625,0.000766
91.71875,0.000779
91.875,0.000754
92.03125,0.000711
92.1875,0.000578
92.34375,0.000698
92.5,0.001267
92.65625,0.002064
92.8125,0.00155
92.96875,0.000599
93.125,0.000591
93.28125,0.000629
93.4375,0.000664
93.59375,0.000689
93.75,0.000664
93.90625,0.000454
94.0625,0.000664
94.21875,0.000711
94.375,0.000831
94.53125,0.000754
94.6875,0.000495
94.84375,0.000509
95,0.00042
95.15625,0.000578
95.3125,0.000629
95.46875,0.000495
95.625,0.002363
95.78125,0.007707
95.9375,0.006371
96.09375,0.001019
96.25,0.001901
96.40625,0.001105
96.5625,0.000509
96.71875,0.000439
96.875,0.000503
97.03125,0.000516
97.1875,0.000557
97.34375,0.000516
97.5,0.000411
97.65625,0.000612
97.8125,0.000963
97.96875,0.001327
98.125,0.000698
98.28125,0.000524
98.4375,0.000488
98.59375,0.002261
98.75,0.00685
98.90625,0.005309
99.0625,0.001075
99.21875,0.001704
99.375,0.001447
99.53125,0.001087
99.6875,0.003682
99.84375,0.024935
100,0.029868
100.1563,0.007809
100.3125,0.001618
100.4688,0.000634
100.625,0.000766
100.7813,0.000664
100.9375,0.000411
101.0938,0.000599
101.25,0.000591
101.4063,0.000488
101.5625,0.000537
101.7188,0.000587
101.875,0.000612
102.0313,0.000495
102.1875,0.000634
102.3438,0.000591
102.5,0.000495
102.6563,0.00042
102.8125,0.000411
102.9688,0.000405
103.125,0.00042
103.2813,0.00039
103.4375,0.000315
103.5938,0.000343
103.75,0.000383
103.9063,0.000355
104.0625,0.000349
104.2188,0.00042
104.375,0.000454
104.5313,0.000362
104.6875,0.000293
104.8438,0.000285
105,0.000315
105.1563,0.000265
105.3125,0.000349
105.4688,0.000334
105.625,0.000321
105.7813,0.000272
105.9375,0.000447
106.0938,0.000524
106.25,0.000328
106.4063,0.00023
106.5625,0.000238
106.7188,0.0003
106.875,0.000355
107.0313,0.000334
107.1875,0.000439
107.3438,0.000349
107.5,0.000321
107.6563,0.0003
107.8125,0.000272
107.9688,0.000343
108.125,0.00046
108.2813,0.000482
108.4375,0.000495
108.5938,0.001644
108.75,0.002261
108.9063,0.00131
109.0625,0.000328
109.2188,0.000495
109.375,0.0003
109.5313,0.000252
109.6875,0.000272
109.8438,0.00039
110,0.000467
110.1563,0.0003
110.3125,0.000467
110.4688,0.000565
110.625,0.000467
110.7813,0.000488
110.9375,0.00039
111.0938,0.000334
111.25,0.000343
111.4063,0.000411
111.5625,0.000377
111.7188,0.000482
111.875,0.004521
112.0313,0.010687
112.1875,0.006576
112.3438,0.000775
112.5,0.000426
112.6563,0.00037
112.8125,0.00046
112.9688,0.000698
113.125,0.000454
113.2813,0.000238
113.4375,0.000355
113.5938,0.000591
113.75,0.000537
113.9063,0.000706
114.0625,0.001156
114.2188,0.001636
114.375,0.000963
114.5313,0.000608
114.6875,0.000668
114.8438,0.000467
115,0.00042
115.1563,0.0003
115.3125,0.000195
115.4688,0.000278
115.625,0.000244
115.7813,0.000202
115.9375,0.000328
116.0938,0.000439
116.25,0.000321
116.4063,0.00023
116.5625,0.000839
116.7188,0.001049
116.875,0.000599
117.0313,0.000411
117.1875,0.000334
117.3438,0.000362
117.5,0.000285
117.6563,0.000315
117.8125,0.000531
117.9688,0.000634
118.125,0.001481
118.2813,0.002569
118.4375,0.0174
118.5938,0.024387
118.75,0.008392
118.9063,0.001216
119.0625,0.000719
119.2188,0.000495
119.375,0.000503
119.5313,0.000552
119.6875,0.000398
119.8438,0.000272
120,0.00042
120.1563,0.005343
120.3125,0.011509
120.4688,0.006645
120.625,0.001019
120.7813,0.000321
120.9375,0.000293
121.0938,0.00042
121.25,0.000524
121.4063,0.000405
121.5625,0.000272
121.7188,0.000516
121.875,0.00095
122.0313,0.000895
122.1875,0.000843
122.3438,0.00262
122.5,0.002518
122.6563,0.001062
122.8125,0.001644
122.9688,0.00173
123.125,0.001182
123.2813,0.000762
123.4375,0.000818
123.5938,0.001336
123.75,0.00095
123.9063,0.000565
124.0625,0.000569
124.2188,0.003237
124.375,0.01007
124.5313,0.007912
124.6875,0.00131
124.8438,0.000629
125,0.000509
125.1563,0.000447
125.3125,0.000524
125.4688,0.000454
125.625,0.000426
125.7813,0.000439
125.9375,0.000664
126.0938,0.000668
126.25,0.000398
126.4063,0.000509
126.5625,0.000377
126.7188,0.000569
126.875,0.000612
127.0313,0.000565
127.1875,0.000818
127.3438,0.000852
127.5,0.000921
127.6563,0.000754
127.8125,0.000599
127.9688,0.000796
128.125,0.000537
128.2813,0.001593
128.4375,0.003048
128.5938,0.00173
128.75,0.000467
128.9063,0.00137
129.0625,0.002012
129.2188,0.000775
129.375,0.00042
129.5313,0.000557
129.6875,0.000509
129.8438,0.00046
130,0.000578
130.1563,0.000801
130.3125,0.000963
130.4688,0.000647
130.625,0.000552
130.7813,0.000612
130.9375,0.001464
131.0938,0.003288
131.25,0.002064
131.4063,0.000591
131.5625,0.000706
131.7188,0.000608
131.875,0.000565
132.0313,0.000766
132.1875,0.001032
132.3438,0.001661
132.5,0.00113
132.6563,0.003459
132.8125,0.00548
132.9688,0.002346
133.125,0.000524
133.2813,0.000587
133.4375,0.000537
133.5938,0.000509
133.75,0.000426
133.9063,0.000509
134.0625,0.000676
134.2188,0.000475
134.375,0.000321
134.5313,0.000426
134.6875,0.000591
134.8438,0.000766
135,0.000698
135.1563,0.000933
135.3125,0.000587
135.4688,0.000599
135.625,0.000788
135.7813,0.000933
135.9375,0.000963
136.0938,0.000685
136.25,0.000454
136.4063,0.000668
136.5625,0.001032
136.7188,0.000963
136.875,0.000745
137.0313,0.000503
137.1875,0.000719
137.3438,0.001242
137.5,0.001006
137.6563,0.000843
137.8125,0.000599
137.9688,0.000432
138.125,0.000383
138.2813,0.000822
138.4375,0.000719
138.5938,0.000509
138.75,0.000732
138.9063,0.000591
139.0625,0.001773
139.2188,0.003322
139.375,0.002124
139.5313,0.001293
139.6875,0.001139
139.8438,0.000741
140,0.000612
140.1563,0.000612
140.3125,0.000856
140.4688,0.001049
140.625,0.001032
140.7813,0.001139
140.9375,0.000908
141.0938,0.000933
141.25,0.001105
141.4063,0.001006
141.5625,0.001087
141.7188,0.001242
141.875,0.000788
142.0313,0.000895
142.1875,0.001293
142.3438,0.000963
142.5,0.000921
142.6563,0.00131
142.8125,0.00113
142.9688,0.000963
143.125,0.001019
143.2813,0.000801
143.4375,0.000552
143.5938,0.000524
143.75,0.000621
143.9063,0.000537
144.0625,0.000754
144.2188,0.000719
144.375,0.001267
144.5313,0.001049
144.6875,0.001481
144.8438,0.001952
145,0.000809
145.1563,0.000878
145.3125,0.000839
145.4688,0.000509
145.625,0.000698
145.7813,0.001032
145.9375,0.001113
146.0938,0.001156
146.25,0.000921
146.4063,0.000775
146.5625,0.001182
146.7188,0.001678
146.875,0.002312
147.0313,0.001533
147.1875,0.000741
147.3438,0.000908
147.5,0.001049
147.6563,0.001019
147.8125,0.000921
147.9688,0.000745
148.125,0.001293
148.2813,0.001636
148.4375,0.001139
148.5938,0.000732
148.75,0.001182
148.9063,0.002346
149.0625,0.002792
149.2188,0.002038
149.375,0.002757
149.5313,0.002012
149.6875,0.00179
149.8438,0.001713
150,0.00149
150.1563,0.001259
150.3125,0.001524
150.4688,0.001678
150.625,0.001773
150.7813,0.00149
150.9375,0.004418
151.0938,0.008905
151.25,0.005412
151.4063,0.001661
151.5625,0.001267
151.7188,0.002261
151.875,0.002226
152.0313,0.000989
152.1875,0.001032
152.3438,0.000921
152.5,0.001267
152.6563,0.001156
152.8125,0.001353
152.9688,0.001421
153.125,0.001293
153.2813,0.001927
153.4375,0.001439
153.5938,0.001216
153.75,0.001327
153.9063,0.001139
154.0625,0.001293
154.2188,0.001396
154.375,0.001687
154.5313,0.002312
154.6875,0.001901
154.8438,0.001524
155,0.001259
155.1563,0.000976
155.3125,0.000878
155.4688,0.001747
155.625,0.001713
155.7813,0.001242
155.9375,0.001379
156.0938,0.001644
156.25,0.001901
156.4063,0.001413
156.5625,0.000565
156.7188,0.001173
156.875,0.00149
157.0313,0.004247
157.1875,0.0174
157.3438,0.018496
157.5,0.004795
157.6563,0.001242
157.8125,0.001225
157.9688,0.002569
158.125,0.002757
158.2813,0.00262
158.4375,0.003905
158.5938,0.003237
158.75,0.001533
158.9063,0.001336
159.0625,0.001019
159.2188,0.000933
159.375,0.000865
159.5313,0.001644
159.6875,0.001353
159.8438,0.000809
160,0.001087
160.1563,0.001576
160.3125,0.001447
160.4688,0.001678
160.625,0.001558
160.7813,0.001439
160.9375,0.002149
161.0938,0.002038
161.25,0.001533
161.4063,0.001704
161.5625,0.001413
161.7188,0.001113
161.875,0.001049
162.0313,0.001533
162.1875,0.001558
162.3438,0.001481
162.5,0.002312
162.6563,0.002012
162.8125,0.002012
162.9688,0.001533
163.125,0.001293
163.2813,0.000818
163.4375,0.001327
163.5938,0.002038
163.75,0.001576
163.9063,0.001225
164.0625,0.000809
164.2188,0.000921
164.375,0.000989
164.5313,0.001006
164.6875,0.001139
164.8438,0.001087
165,0.001259
165.1563,0.000865
165.3125,0.001075
165.4688,0.001413
165.625,0.001267
165.7813,0.00155
165.9375,0.001032
166.0938,0.000599
166.25,0.000766
166.4063,0.000839
166.5625,0.001062
166.7188,0.000933
166.875,0.000719
167.0313,0.000921
167.1875,0.00173
167.3438,0.001927
167.5,0.001644
167.6563,0.001105
167.8125,0.001199
167.9688,0.00155
168.125,0.000908
168.2813,0.000818
168.4375,0.001105
168.5938,0.001032
168.75,0.000706
168.9063,0.000578
169.0625,0.000766
169.2188,0.002706
169.375,0.002792
169.5313,0.001242
169.6875,0.001105
169.8438,0.000921
170,0.000908
170.1563,0.001019
170.3125,0.000856
170.4688,0.000732
170.625,0.00037
170.7813,0.000488
170.9375,0.000642
171.0938,0.001216
171.25,0.001439
171.4063,0.000706
171.5625,0.000843
171.7188,0.000865
171.875,0.000711
172.0313,0.000689
172.1875,0.000544
172.3438,0.000537
172.5,0.000839
172.6563,0.001075
172.8125,0.000843
