Frecuencia(Hz),"	mm/Seg(PC)"
1.541016,1.972903
2.311523,0.946993
3.082031,0.506378
3.852539,0.200578
4.623047,0.366083
5.393555,0.268534
6.164063,0.201675
6.93457,0.113442
7.705078,0.068778
8.475586,0.071792
9.246094,0.08056
10.0166,0.162216
10.78711,0.158928
11.55762,0.052063
12.32813,0.073436
13.09863,0.075628
13.86914,0.087685
14.63965,0.093165
15.41016,0.187426
16.18066,0.175369
16.95117,0.078916
17.72168,0.098645
18.49219,0.104125
19.2627,0.078916
20.0332,0.058365
20.80371,0.041924
21.57422,0.026031
22.34473,0.041102
23.11523,0.041376
23.88574,0.073984
24.65625,0.08056
25.42676,0.035896
26.19727,0.070696
26.96777,0.041102
27.73828,0.043842
28.50879,0.038362
29.2793,0.03754
30.0498,0.04302
30.82031,0.029594
31.59082,0.03754
32.36133,0.050419
33.13184,0.064667
33.90234,0.035896
34.67285,0.041924
35.44336,0.038362
36.21387,0.029183
36.98438,0.023017
37.75488,0.043842
38.52539,0.053707
39.2959,0.02562
40.06641,0.017948
40.83691,0.026442
41.60742,0.024524
42.37793,0.027675
43.14844,0.019318
43.91895,0.019455
44.68945,0.029183
45.45996,0.02836
46.23047,0.023017
47.00098,0.03754
47.77148,0.109058
48.54199,1.972903
49.3125,3.209255
50.08301,1.297732
50.85352,0.061653
51.62402,0.042472
52.39453,0.032334
53.16504,0.023702
53.93555,0.020551
54.70605,0.029183
55.47656,0.026853
56.24707,0.015208
57.01758,0.013632
57.78809,0.024661
58.55859,0.03754
59.3291,0.022058
60.09961,0.019318
60.87012,0.02014
61.64063,0.015619
62.41113,0.018085
63.18164,0.028771
63.95215,0.078916
64.72266,0.095357
65.49316,0.030005
66.26367,0.008837
67.03418,0.017194
67.80469,0.021236
68.5752,0.014043
69.3457,0.012605
70.11621,0.016783
70.88672,0.021099
71.65723,0.018496
72.42773,0.016989
73.19824,0.019866
73.96875,0.024798
74.73926,0.022469
75.50977,0.015002
76.28027,0.014386
77.05078,0.01418
77.82129,0.011851
78.5918,0.015824
79.3623,0.015619
80.13281,0.016783
80.90332,0.016989
81.67383,0.015824
82.44434,0.017948
83.21484,0.015619
83.98535,0.013632
84.75586,0.02014
85.52637,0.01418
86.29688,0.014591
87.06738,0.012399
87.83789,0.014797
88.6084,0.008837
89.37891,0.015961
90.14941,0.025209
90.91992,0.017674
91.69043,0.01007
92.46094,0.020277
93.23145,0.031923
94.00195,0.043842
94.77246,0.046582
95.54297,0.123306
96.31348,0.701477
97.08398,0.819851
97.85449,0.236748
98.625,0.079464
99.39551,0.121662
100.166,0.158928
100.9365,0.055351
101.707,0.026853
102.4775,0.031238
103.248,0.02425
104.0186,0.016167
104.7891,0.017674
105.5596,0.020551
106.3301,0.026853
107.1006,0.021921
107.8711,0.01144
108.6416,0.023017
109.4121,0.013221
110.1826,0.017674
110.9531,0.016167
111.7236,0.02836
112.4941,0.035896
113.2646,0.02562
114.0352,0.025209
114.8057,0.026031
115.5762,0.020551
116.3467,0.015824
117.1172,0.01877
117.8877,0.016578
118.6582,0.016167
119.4287,0.018359
120.1992,0.015961
120.9697,0.01281
121.7402,0.016989
122.5107,0.012399
123.2813,0.012057
124.0518,0.013427
124.8223,0.012399
125.5928,0.020277
126.3633,0.018085
127.1338,0.017537
127.9043,0.023017
128.6748,0.041376
129.4453,0.031649
130.2158,0.013427
130.9863,0.026442
131.7568,0.02836
132.5273,0.026031
133.2979,0.023428
134.0684,0.020688
134.8389,0.015208
135.6094,0.017537
136.3799,0.019318
137.1504,0.018085
137.9209,0.021647
138.6914,0.034389
139.4619,0.028771
140.2324,0.031923
141.0029,0.042472
141.7734,0.037814
142.5439,0.04576
143.3145,0.04576
144.085,0.084396
144.8555,0.08604
145.626,0.236748
146.3965,0.246613
147.167,0.11673
147.9375,0.115086
148.708,0.053707
149.4785,0.033567
150.249,0.049597
151.0195,0.102481
151.79,0.089877
152.5605,0.035074
153.3311,0.025072
154.1016,0.02836
154.8721,0.018907
155.6426,0.032334
156.4131,0.03617
157.1836,0.033567
157.9541,0.046856
158.7246,0.051241
159.4951,0.063297
160.2656,0.048227
161.0361,0.112346
161.8066,0.102481
162.5771,0.08604
163.3477,0.110702
164.1182,0.124951
164.8887,0.139199
165.6592,0.092069
166.4297,0.139199
167.2002,0.10577
167.9707,0.110702
168.7412,0.154544
169.5117,0.15016
170.2822,0.211539
171.0527,0.328817
171.8232,0.31128
172.5938,0.322241
173.3643,0.381428
174.1348,0.265246
174.9053,0.23346
175.6758,0.243325
176.4463,0.282783
177.2168,0.204963
177.9873,0.278399
178.7578,0.218115
179.5283,0.172081
180.2988,0.19729
181.0693,0.147968
181.8398,0.179753
182.6104,0.110702
183.3809,0.084396
184.1514,0.123306
184.9219,0.094809
185.6924,0.093165
186.4629,0.097001
187.2334,0.084396
188.0039,0.08056
188.7744,0.109058
189.5449,0.097001
190.3154,0.110702
191.0859,0.091521
191.8564,0.08604
192.627,0.15016
193.3975,0.473497
194.168,0.449383
194.9385,0.16112
195.709,0.107414
196.4795,0.189618
197.25,0.162216
198.0205,0.058365
198.791,0.059187
199.5615,0.23346
200.332,0.271822
201.1025,0.082204
201.873,0.048501
202.6436,0.054529
203.4141,0.050145
204.1846,0.036992
204.9551,0.03617
205.7256,0.03754
206.4961,0.056721
207.2666,0.070148
208.0371,0.070148
208.8076,0.073436
209.5781,0.056721
210.3486,0.100837
211.1191,0.093165
211.8896,0.098097
212.6602,0.089877
213.4307,0.077272
214.2012,0.094809
214.9717,0.070148
215.7422,0.084396
216.5127,0.082204
217.2832,0.062475
218.0537,0.045486
218.8242,0.033156
219.5947,0.04028
220.3652,0.057543
221.1357,0.032334
221.9063,0.044116
222.6768,0.049597
223.4473,0.03754
224.2178,0.058365
224.9883,0.10577
225.7588,0.214827
226.5293,0.140295
227.2998,0.083848
228.0703,0.067134
228.8408,0.047404
229.6113,0.055351
230.3818,0.056173
231.1523,0.071792
231.9229,0.070148
232.6934,0.0696
233.4639,0.083848
234.2344,0.071792
235.0049,0.059187
235.7754,0.070696
236.5459,0.051241
237.3164,0.067956
238.0869,0.098097
238.8574,0.130979
239.6279,0.083848
240.3984,0.067956
241.1689,0.129335
241.9395,0.10577
242.71,0.151256
243.4805,0.112346
244.251,0.115086
245.0215,0.140295
245.792,0.154544
246.5625,0.143583
247.333,0.107414
248.1035,0.073436
248.874,0.082204
249.6445,0.110702
250.415,0.121662
251.1855,0.115086
251.9561,0.094809
252.7266,0.092069
253.4971,0.093713
254.2676,0.126595
255.0381,0.127691
255.8086,0.120018
256.5791,0.091521
257.3496,0.098097
258.1201,0.16112
258.8906,0.139199
259.6611,0.123306
260.4316,0.102481
261.2021,0.123306
261.9727,0.109058
262.7432,0.089877
263.5137,0.082204
264.2842,0.070696
265.0547,0.060831
265.8252,0.062475
266.5957,0.051241
267.3662,0.063845
268.1367,0.075628
268.9072,0.055351
269.6777,0.042198
270.4482,0.037814
271.2188,0.040554
271.9893,0.03891
272.7598,0.060831
273.5303,0.07234
274.3008,0.043294
275.0713,0.054529
275.8418,0.042198
276.6123,0.053707
277.3828,0.027675
278.1533,0.033978
278.9238,0.039732
279.6943,0.029183
280.4648,0.030416
281.2354,0.03617
282.0059,0.033978
282.7764,0.042198
283.5469,0.03754
284.3174,0.027264
285.0879,0.039732
285.8584,0.044116
286.6289,0.035896
287.3994,0.039732
288.1699,0.043294
288.9404,0.035896
289.7109,0.204963
290.4814,0.324433
291.252,0.141391
292.0225,0.049597
292.793,0.054529
293.5635,0.046856
294.334,0.033978
295.1045,0.0348
295.875,0.039458
296.6455,0.052885
297.416,0.054529
298.1865,0.03891
298.957,0.03754
299.7275,0.038362
300.498,0.029183
301.2686,0.031923
302.0391,0.038636
302.8096,0.052063
303.5801,0.03754
304.3506,0.03754
305.1211,0.050419
305.8916,0.038636
306.6621,0.028086
307.4326,0.035074
308.2031,0.041102
308.9736,0.051241
309.7441,0.031923
310.5146,0.053707
311.2852,0.070148
312.0557,0.493226
312.8262,1.034678
313.5967,0.565565
314.3672,0.071792
315.1377,0.050419
315.9082,0.031923
316.6787,0.033567
317.4492,0.033567
318.2197,0.031238
318.9902,0.029183
319.7607,0.028771
320.5313,0.035896
321.3018,0.038362
322.0723,0.063845
322.8428,0.079464
323.6133,0.028771
324.3838,0.018496
325.1543,0.024798
325.9248,0.027264
326.6953,0.014043
327.4658,0.02014
328.2363,0.021647
329.0068,0.022469
329.7773,0.020551
330.5479,0.018359
331.3184,0.018496
332.0889,0.02562
332.8594,0.020962
333.6299,0.019318
334.4004,0.026031
335.1709,0.033567
335.9414,0.03617
336.7119,0.032745
337.4824,0.044938
338.2529,0.040554
339.0234,0.02014
339.7939,0.028771
340.5645,0.020962
341.335,0.02562
342.1055,0.023017
342.876,0.035896
343.6465,0.035074
344.417,0.067956
345.1875,0.060009
345.958,0.065489
346.7285,0.032334
347.499,0.019729
348.2695,0.023428
349.04,0.027675
349.8105,0.021647
350.5811,0.023291
351.3516,0.019455
352.1221,0.02151
352.8926,0.015208
353.6631,0.021647
354.4336,0.027264
355.2041,0.023702
355.9746,0.015208
356.7451,0.015002
357.5156,0.019455
358.2861,0.02151
359.0566,0.021099
359.8271,0.017537
360.5977,0.020277
361.3682,0.016167
362.1387,0.019729
362.9092,0.016167
363.6797,0.01418
364.4502,0.024524
365.2207,0.026442
365.9912,0.011235
366.7617,0.017537
367.5322,0.027675
368.3027,0.032334
369.0732,0.028086
369.8438,0.03754
370.6143,0.03754
371.3848,0.02836
372.1553,0.029594
372.9258,0.017948
373.6963,0.02836
374.4668,0.029183
375.2373,0.029594
376.0078,0.021236
376.7783,0.019318
377.5488,0.033567
378.3193,0.02836
379.0898,0.030005
379.8604,0.035074
380.6309,0.041924
381.4014,0.035348
382.1719,0.036992
382.9424,0.035896
383.7129,0.04302
384.4834,0.067134
385.2539,0.16112
386.0244,0.776008
386.7949,2.946202
387.5654,2.525316
388.3359,0.409925
389.1064,0.140295
389.877,0.048501
390.6475,0.023428
391.418,0.011646
392.1885,0.014797
392.959,0.024661
393.7295,0.030005
394.5,0.014386
395.2705,0.01281
396.041,0.014797
396.8115,0.017674
397.582,0.015961
398.3525,0.016783
399.123,0.019455
399.8936,0.03891
400.6641,0.029183
401.4346,0.009865
402.2051,0.014797
402.9756,0.022058
403.7461,0.02151
404.5166,0.022469
405.2871,0.01877
406.0576,0.011646
406.8281,0.016578
407.5986,0.017674
408.3691,0.016372
409.1396,0.030416
409.9102,0.040554
410.6807,0.030416
411.4512,0.020551
412.2217,0.015208
412.9922,0.019455
413.7627,0.02288
414.5332,0.026031
415.3037,0.022743
416.0742,0.024798
416.8447,0.029594
417.6152,0.031923
418.3857,0.033156
419.1563,0.112346
419.9268,0.089877
420.6973,0.036718
421.4678,0.035896
422.2383,0.04576
423.0088,0.042472
423.7793,0.034389
424.5498,0.029594
425.3203,0.03754
426.0908,0.030005
426.8613,0.045486
427.6318,0.049049
428.4023,0.071792
429.1729,0.070148
429.9434,0.040554
430.7139,0.049323
431.4844,0.061653
432.2549,0.089877
433.0254,0.07782
433.7959,0.065489
434.5664,0.175369
435.3369,0.115086
436.1074,0.165505
436.8779,0.134267
437.6484,0.090973
438.4189,0.079464
439.1895,0.065489
439.96,0.067134
440.7305,0.049049
441.501,0.073436
442.2715,0.088233
443.042,0.086589
443.8125,0.077272
444.583,0.083848
445.3535,0.079464
446.124,0.081108
446.8945,0.059187
447.665,0.052063
448.4355,0.073984
449.2061,0.07508
449.9766,0.060009
450.7471,0.067956
451.5176,0.129335
452.2881,0.088233
453.0586,0.052885
453.8291,0.071792
454.5996,0.087685
455.3701,0.055351
456.1406,0.044116
456.9111,0.052063
457.6816,0.073984
458.4521,0.078916
459.2227,0.053707
459.9932,0.061653
460.7637,0.086589
461.5342,0.082204
462.3047,0.047404
463.0752,0.046034
463.8457,0.0696
464.6162,0.059187
465.3867,0.04302
466.1572,0.081108
466.9277,0.100837
467.6982,0.086589
468.4688,0.089877
469.2393,0.068778
470.0098,0.049049
470.7803,0.086589
471.5508,0.067956
472.3213,0.049049
473.0918,0.053707
473.8623,0.052885
474.6328,0.050419
475.4033,0.038636
476.1738,0.042472
476.9443,0.044664
477.7148,0.041376
478.4854,0.065489
479.2559,0.058365
480.0264,0.035348
480.7969,0.029594
481.5674,0.060009
482.3379,0.118374
483.1084,0.306896
483.8789,0.530492
484.6494,0.23346
485.4199,0.066311
486.1904,0.055351
486.9609,0.102481
487.7314,0.076724
488.502,0.041102
489.2725,0.032745
490.043,0.041924
490.8135,0.046582
491.584,0.0348
492.3545,0.030416
493.125,0.028086
493.8955,0.036992
494.666,0.03754
495.4365,0.031238
496.207,0.044116
496.9775,0.048227
497.748,0.033978
498.5186,0.047404
499.2891,0.047678
500.0596,0.100837
500.8301,0.100837
501.6006,0.035896
502.3711,0.058365
503.1416,0.039732
503.9121,0.026853
504.6826,0.038362
505.4531,0.031649
506.2236,0.030005
506.9941,0.031649
507.7646,0.031238
508.5352,0.03617
509.3057,0.024661
510.0762,0.030005
510.8467,0.031238
511.6172,0.026031
512.3877,0.039458
513.1582,0.034389
513.9287,0.036718
514.6992,0.032745
515.4697,0.11673
516.2402,0.179753
517.0107,0.089329
517.7813,0.033978
518.5518,0.042198
519.3223,0.051241
520.0928,0.035348
520.8633,0.03754
521.6338,0.02836
522.4043,0.054529
523.1748,0.049049
523.9453,0.03891
524.7158,0.039458
525.4863,0.051241
526.2568,0.051241
527.0273,0.040554
527.7979,0.039732
528.5684,0.084944
529.3389,0.102481
530.1094,0.050419
530.8799,0.07234
531.6504,0.084944
532.4209,0.071792
533.1914,0.107414
533.9619,0.066311
534.7324,0.065489
535.5029,0.062475
536.2734,0.03754
537.0439,0.02836
537.8145,0.046034
538.585,0.056173
539.3555,0.03891
540.126,0.065489
540.8965,0.162216
541.667,0.151256
542.4375,0.047404
543.208,0.050145
543.9785,0.041376
544.749,0.059187
545.5195,0.056173
546.29,0.0696
547.0605,0.055351
547.8311,0.043294
548.6016,0.03617
549.3721,0.039732
550.1426,0.035896
550.9131,0.052063
551.6836,0.070696
552.4541,0.035074
553.2246,0.023291
553.9951,0.033567
554.7656,0.041376
555.5361,0.035896
556.3066,0.033978
557.0771,0.032745
557.8477,0.052063
558.6182,0.07508
559.3887,0.07782
560.1592,0.087685
560.9297,0.070696
561.7002,0.070148
562.4707,0.070696
563.2412,0.07782
564.0117,0.070696
564.7822,0.068778
565.5527,0.078916
566.3232,0.039458
567.0938,0.052063
567.8643,0.047678
568.6348,0.053707
569.4053,0.044664
570.1758,0.033567
570.9463,0.039732
571.7168,0.039458
572.4873,0.031649
573.2578,0.035896
574.0283,0.044664
574.7988,0.045486
575.5693,0.063297
576.3398,0.048501
577.1104,0.058365
577.8809,0.073436
578.6514,0.071792
579.4219,0.059187
580.1924,0.120018
580.9629,0.135911
581.7334,0.03891
582.5039,0.026853
583.2744,0.034389
584.0449,0.035896
584.8154,0.027675
585.5859,0.032745
586.3564,0.032745
587.127,0.039458
587.8975,0.032745
588.668,0.026031
589.4385,0.023702
590.209,0.031238
590.9795,0.033567
591.75,0.038636
592.5205,0.035896
593.291,0.030827
594.0615,0.028086
594.832,0.036718
595.6025,0.046582
596.373,0.075628
597.1436,0.123306
597.9141,0.067134
598.6846,0.041924
599.4551,0.062475
600.2256,0.061653
600.9961,0.049049
601.7666,0.04302
602.5371,0.056721
603.3076,0.056173
604.0781,0.03754
604.8486,0.026031
605.6191,0.017674
606.3896,0.031649
607.1602,0.032745
607.9307,0.031923
608.7012,0.027675
609.4717,0.039732
610.2422,0.051241
611.0127,0.046582
611.7832,0.033156
612.5537,0.089877
613.3242,0.095357
614.0947,0.055351
614.8652,0.038362
615.6357,0.067134
616.4063,0.052885
617.1768,0.030416
617.9473,0.051241
618.7178,0.037814
619.4883,0.020551
620.2588,0.019318
621.0293,0.017948
621.7998,0.015208
622.5703,0.023428
623.3408,0.044664
624.1113,0.055351
624.8818,0.201675
625.6523,0.423078
626.4229,0.246613
627.1934,0.055351
627.9639,0.031923
628.7344,0.01418
629.5049,0.015961
630.2754,0.013632
631.0459,0.015002
631.8164,0.017194
632.5869,0.040554
633.3574,0.043294
634.1279,0.018085
634.8984,0.019181
635.6689,0.01281
636.4395,0.010824
637.21,0.009865
637.9805,0.016783
638.751,0.017948
639.5215,0.044664
640.292,0.031238
641.0625,0.019318
641.833,0.01877
642.6035,0.010481
643.374,0.01144
644.1445,0.0174
644.915,0.047678
645.6855,0.032745
646.4561,0.00709
647.2266,0.008083
647.9971,0.009865
648.7676,0.009042
649.5381,0.012399
650.3086,0.013632
651.0791,0.01877
651.8496,0.026853
652.6201,0.0174
653.3906,0.01007
654.1611,0.012262
654.9316,0.008837
655.7021,0.016372
656.4727,0.02151
657.2432,0.013632
658.0137,0.018085
658.7842,0.020962
659.5547,0.019318
660.3252,0.023839
661.0957,0.030005
661.8662,0.014591
662.6367,0.017948
663.4072,0.016372
664.1777,0.016372
664.9482,0.017537
665.7188,0.0174
666.4893,0.010618
667.2598,0.011851
668.0303,0.009865
668.8008,0.008083
669.5713,0.010481
670.3418,0.011235
671.1123,0.012605
671.8828,0.020551
672.6533,0.022332
673.4238,0.016372
674.1943,0.023291
674.9648,0.0174
675.7354,0.024798
676.5059,0.033156
677.2764,0.076724
678.0469,0.056721
678.8174,0.02288
679.5879,0.018359
680.3584,0.014797
681.1289,0.011646
681.8994,0.013838
682.6699,0.015961
683.4404,0.015413
684.2109,0.014386
684.9814,0.012399
685.752,0.01007
686.5225,0.015619
687.293,0.018085
688.0635,0.014386
688.834,0.018496
689.6045,0.015961
690.375,0.015208
691.1455,0.008837
691.916,0.013016
692.6865,0.026853
693.457,0.034389
694.2275,0.033978
694.998,0.031238
695.7686,0.026442
696.5391,0.020551
697.3096,0.016578
698.0801,0.016167
698.8506,0.031923
699.6211,0.110702
700.3916,0.095357
701.1621,0.022743
701.9326,0.013016
702.7031,0.019455
703.4736,0.033978
704.2441,0.023428
705.0146,0.012262
705.7852,0.015208
706.5557,0.016167
707.3262,0.020551
708.0967,0.022469
708.8672,0.02014
709.6377,0.042472
710.4082,0.0348
711.1787,0.019318
711.9492,0.024113
712.7197,0.035348
713.4902,0.020551
714.2607,0.019866
715.0313,0.030005
715.8018,0.026853
716.5723,0.016783
717.3428,0.013221
718.1133,0.017537
718.8838,0.017674
719.6543,0.015413
720.4248,0.013838
721.1953,0.022469
721.9658,0.03617
722.7363,0.04028
723.5068,0.02562
724.2773,0.027264
725.0479,0.043294
725.8184,0.029594
726.5889,0.024524
727.3594,0.024798
728.1299,0.018359
728.9004,0.032334
729.6709,0.030005
730.4414,0.028771
731.2119,0.026031
731.9824,0.028086
732.7529,0.022058
733.5234,0.023428
734.2939,0.029183
735.0645,0.036718
735.835,0.031649
736.6055,0.02562
737.376,0.026853
738.1465,0.02562
738.917,0.040554
739.6875,0.033978
740.458,0.043842
741.2285,0.051241
741.999,0.056721
742.7695,0.026031
743.54,0.020551
744.3105,0.023291
745.0811,0.026442
745.8516,0.02151
746.6221,0.020277
747.3926,0.020277
748.1631,0.026853
748.9336,0.026031
749.7041,0.011029
750.4746,0.016989
751.2451,0.022469
752.0156,0.030005
752.7861,0.029183
753.5566,0.026442
754.3271,0.030005
755.0977,0.026853
755.8682,0.023839
756.6387,0.043842
757.4092,0.067956
758.1797,0.050419
758.9502,0.031238
759.7207,0.030827
760.4912,0.024524
761.2617,0.020277
762.0322,0.023017
762.8027,0.02014
763.5732,0.026853
764.3438,0.02562
765.1143,0.019181
765.8848,0.017674
766.6553,0.019455
767.4258,0.01877
768.1963,0.021236
768.9668,0.019318
769.7373,0.031238
770.5078,0.024524
771.2783,0.023839
772.0488,0.064667
772.8193,0.0696
773.5898,0.449383
774.3604,0.618176
775.1309,0.208251
775.9014,0.060009
776.6719,0.032745
777.4424,0.023702
778.2129,0.018907
778.9834,0.016372
779.7539,0.019181
780.5244,0.015413
781.2949,0.013016
782.0654,0.01281
782.8359,0.012262
783.6064,0.010824
784.377,0.012399
785.1475,0.015824
785.918,0.015002
786.6885,0.014591
787.459,0.018359
788.2295,0.013838
789,0.016372
789.7705,0.029594
790.541,0.027675
791.3115,0.02425
792.082,0.018907
792.8525,0.016372
793.623,0.011851
794.3936,0.012605
795.1641,0.008083
795.9346,0.015208
796.7051,0.019866
797.4756,0.023291
798.2461,0.027264
799.0166,0.018496
799.7871,0.022058
800.5576,0.02562
801.3281,0.023702
802.0986,0.022058
802.8691,0.023839
803.6396,0.028771
804.4102,0.029183
805.1807,0.019866
805.9512,0.044938
806.7217,0.067134
807.4922,0.033978
808.2627,0.019866
809.0332,0.027675
809.8037,0.029594
810.5742,0.016372
811.3447,0.02014
812.1152,0.02151
812.8857,0.023839
813.6563,0.023839
814.4268,0.023839
815.1973,0.026442
815.9678,0.030827
816.7383,0.020962
817.5088,0.024113
818.2793,0.027675
819.0498,0.035896
819.8203,0.033978
820.5908,0.016167
821.3613,0.028086
