Frecuencia(Hz),mm/Seg(PC)
3.125,0.532684
4.6875,0.429654
6.25,0.519531
7.8125,0.62256
9.375,0.504186
10.9375,0.453768
12.5,0.320049
14.0625,1.3065
15.625,1.850144
17.1875,0.784777
18.75,0.458152
20.3125,0.254285
21.875,0.287167
23.4375,0.188522
25,0.219211
26.5625,0.287167
28.125,0.209347
29.6875,0.339778
31.25,0.298128
32.8125,0.23346
34.375,0.306896
35.9375,0.240037
37.5,0.146872
39.0625,0.18633
40.625,0.247709
42.1875,0.259766
43.75,0.172081
45.3125,0.223596
46.875,0.885614
48.4375,4.156249
50,3.858121
51.5625,0.65325
53.125,0.23346
54.6875,0.14468
56.25,0.128239
57.8125,0.298128
59.375,0.381428
60.9375,0.210443
62.5,0.266342
64.0625,0.548029
65.625,0.418694
67.1875,0.115634
68.75,0.128787
70.3125,0.113442
71.875,0.129883
73.4375,0.46692
75,0.495418
76.5625,0.143583
78.125,0.099193
79.6875,0.207155
81.25,0.335393
82.8125,0.194002
84.375,0.115634
85.9375,0.11673
87.5,0.075628
89.0625,0.192906
90.625,0.188522
92.1875,0.08604
93.75,0.078916
95.3125,0.578718
96.875,0.999604
98.4375,0.480073
100,0.214827
101.5625,0.137007
103.125,0.096453
104.6875,0.102481
106.25,0.08056
107.8125,0.058913
109.375,0.075628
110.9375,0.207155
112.5,0.210443
114.0625,0.066585
115.625,0.106318
117.1875,0.10851
118.75,0.068504
120.3125,0.042472
121.875,0.053707
123.4375,0.064941
125,0.064393
126.5625,0.061379
128.125,0.0696
129.6875,0.054255
131.25,0.048501
132.8125,0.048227
134.375,0.078916
135.9375,0.07782
137.5,0.07782
139.0625,0.067682
140.625,0.076724
142.1875,0.103577
143.75,0.090973
145.3125,0.063571
146.875,0.057817
148.4375,0.071792
150,0.040006
151.5625,0.046582
153.125,0.064941
154.6875,0.060831
156.25,0.058913
157.8125,0.046034
159.375,0.046582
160.9375,0.053159
162.5,0.088233
164.0625,0.096453
165.625,0.050693
167.1875,0.049597
168.75,0.071792
170.3125,0.080012
171.875,0.068504
173.4375,0.037814
175,0.04439
176.5625,0.062475
178.125,0.096453
179.6875,0.101385
181.25,0.080012
182.8125,0.050145
184.375,0.042472
185.9375,0.07234
187.5,0.061927
189.0625,0.061379
190.625,0.112894
192.1875,0.355123
193.75,0.381428
195.3125,0.121662
196.875,0.120566
198.4375,0.210443
200,0.355123
201.5625,0.192906
203.125,0.063571
204.6875,0.049049
206.25,0.053707
207.8125,0.054255
209.375,0.052337
210.9375,0.048227
212.5,0.063023
214.0625,0.068504
215.625,0.048501
217.1875,0.04028
218.75,0.049049
220.3125,0.049597
221.875,0.053707
223.4375,0.065489
225,0.047678
226.5625,0.054803
228.125,0.043568
229.6875,0.075628
231.25,0.099193
232.8125,0.068504
234.375,0.066585
235.9375,0.044938
237.5,0.065489
239.0625,0.082752
240.625,0.060283
242.1875,0.07234
243.75,0.160024
245.3125,0.35293
246.875,0.344162
248.4375,0.196194
250,0.103577
251.5625,0.106318
253.125,0.095357
254.6875,0.080012
256.25,0.113442
257.8125,0.129883
259.375,0.149064
260.9375,0.129883
262.5,0.107414
264.0625,0.067682
265.625,0.092069
267.1875,0.095357
268.75,0.070696
270.3125,0.08056
271.875,0.080012
273.4375,0.096453
275,0.07782
276.5625,0.050145
278.125,0.041376
279.6875,0.036718
281.25,0.036718
282.8125,0.030005
284.375,0.027949
285.9375,0.04439
287.5,0.049049
289.0625,0.18633
290.625,0.207155
292.1875,0.067682
293.75,0.059461
295.3125,0.090973
296.875,0.102481
298.4375,0.054803
300,0.101385
301.5625,0.046582
303.125,0.021236
304.6875,0.052337
306.25,0.051241
307.8125,0.038362
309.375,0.035348
310.9375,0.207155
312.5,0.348546
314.0625,0.149064
315.625,0.029457
317.1875,0.023291
318.75,0.022058
320.3125,0.042472
321.875,0.080012
323.4375,0.054255
325,0.024798
326.5625,0.04439
328.125,0.039458
329.6875,0.031512
331.25,0.028634
332.8125,0.033293
334.375,0.034252
335.9375,0.034252
337.5,0.056721
339.0625,0.036718
340.625,0.023291
342.1875,0.045486
343.75,0.07234
345.3125,0.052611
346.875,0.029457
348.4375,0.026579
350,0.027949
351.5625,0.024113
353.125,0.033293
354.6875,0.037814
356.25,0.029183
357.8125,0.02151
359.375,0.022743
360.9375,0.023291
362.5,0.015345
364.0625,0.020003
365.625,0.026579
367.1875,0.030005
368.75,0.0348
370.3125,0.101385
371.875,0.126047
373.4375,0.050693
375,0.037814
376.5625,0.038362
378.125,0.024113
379.6875,0.026579
381.25,0.043568
382.8125,0.048227
384.375,0.409925
385.9375,1.718618
387.5,1.569554
389.0625,0.274014
390.625,0.052337
392.1875,0.042472
393.75,0.056447
395.3125,0.027401
396.875,0.038362
398.4375,0.034252
400,0.055351
401.5625,0.121662
403.125,0.096453
404.6875,0.049597
406.25,0.051789
407.8125,0.053159
409.375,0.044116
410.9375,0.041924
412.5,0.056447
414.0625,0.053159
415.625,0.049597
417.1875,0.088233
418.75,0.133171
420.3125,0.097001
421.875,0.093165
423.4375,0.064941
425,0.060009
426.5625,0.056447
428.125,0.075628
429.6875,0.07782
431.25,0.084944
432.8125,0.097001
434.375,0.114538
435.9375,0.143583
437.5,0.073436
439.0625,0.070696
440.625,0.070696
442.1875,0.084944
443.75,0.066585
445.3125,0.071792
446.875,0.060009
448.4375,0.057817
450,0.153448
451.5625,0.194002
453.125,0.087137
454.6875,0.074532
456.25,0.064119
457.8125,0.063023
459.375,0.055899
460.9375,0.064393
462.5,0.051241
464.0625,0.067682
465.625,0.058913
467.1875,0.071792
468.75,0.073436
470.3125,0.043568
471.875,0.03206
473.4375,0.020962
475,0.033293
476.5625,0.049049
478.125,0.073436
479.6875,0.058913
481.25,0.149064
482.8125,0.385812
484.375,0.289359
485.9375,0.051241
487.5,0.028909
489.0625,0.020962
490.625,0.060283
492.1875,0.068504
493.75,0.030142
495.3125,0.031786
496.875,0.033841
498.4375,0.052611
500,0.08604
501.5625,0.08056
503.125,0.045486
504.6875,0.026305
506.25,0.026579
507.8125,0.024524
509.375,0.024524
510.9375,0.022195
512.5,0.052337
514.0625,0.087137
515.625,0.129883
517.1875,0.060283
518.75,0.021784
520.3125,0.038362
521.875,0.044116
523.4375,0.031786
525,0.021236
526.5625,0.037266
528.125,0.056721
529.6875,0.036718
531.25,0.04028
532.8125,0.030416
534.375,0.048227
535.9375,0.031786
537.5,0.026168
539.0625,0.038362
540.625,0.053707
542.1875,0.040006
543.75,0.028634
545.3125,0.021236
546.875,0.028634
548.4375,0.030964
550,0.046582
551.5625,0.048501
553.125,0.035896
554.6875,0.030964
556.25,0.0348
557.8125,0.040828
559.375,0.050145
560.9375,0.050145
562.5,0.056447
564.0625,0.060009
565.625,0.055351
567.1875,0.060009
568.75,0.054803
570.3125,0.043568
571.875,0.060283
573.4375,0.057269
575,0.092069
576.5625,0.112894
578.125,0.163313
579.6875,0.315664
581.25,0.209347
582.8125,0.067682
584.375,0.0696
585.9375,0.07782
587.5,0.110702
589.0625,0.143583
590.625,0.129883
592.1875,0.088781
593.75,0.082752
595.3125,0.113442
596.875,0.10851
598.4375,0.127143
600,0.128239
601.5625,0.092069
603.125,0.081656
604.6875,0.090973
606.25,0.08604
607.8125,0.058365
609.375,0.0696
610.9375,0.075628
612.5,0.096453
614.0625,0.063023
615.625,0.059461
617.1875,0.067682
618.75,0.074532
620.3125,0.078916
621.875,0.076724
623.4375,0.532684
625,0.819851
626.5625,0.293743
628.125,0.097001
629.6875,0.070696
631.25,0.089877
632.8125,0.117826
634.375,0.063023
635.9375,0.053707
637.5,0.157832
639.0625,0.247709
640.625,0.115634
642.1875,0.04713
643.75,0.04302
645.3125,0.048227
646.875,0.051789
648.4375,0.051241
650,0.080012
651.5625,0.054803
653.125,0.055899
654.6875,0.051789
656.25,0.051789
657.8125,0.050693
659.375,0.037814
660.9375,0.063023
662.5,0.056721
664.0625,0.040006
665.625,0.033841
667.1875,0.026853
668.75,0.030416
670.3125,0.027675
671.875,0.026853
673.4375,0.030964
675,0.055899
676.5625,0.083848
678.125,0.035348
679.6875,0.032471
681.25,0.04713
682.8125,0.046034
684.375,0.035348
685.9375,0.03617
687.5,0.053159
689.0625,0.050693
690.625,0.037266
692.1875,0.03206
693.75,0.033841
695.3125,0.031512
696.875,0.043568
698.4375,0.130979
700,0.101385
701.5625,0.037814
703.125,0.053159
704.6875,0.037814
706.25,0.044116
707.8125,0.032197
709.375,0.021784
710.9375,0.012262
712.5,0.023565
714.0625,0.037814
715.625,0.028634
717.1875,0.024113
718.75,0.021784
720.3125,0.02014
721.875,0.024113
723.4375,0.020003
725,0.025072
726.5625,0.022743
728.125,0.018085
729.6875,0.017126
731.25,0.018359
732.8125,0.01692
734.375,0.018359
735.9375,0.020414
737.5,0.025346
739.0625,0.02562
740.625,0.035896
742.1875,0.036718
743.75,0.02836
745.3125,0.027127
746.875,0.030416
748.4375,0.029457
750,0.025894
751.5625,0.021236
753.125,0.02151
754.6875,0.029183
756.25,0.04028
757.8125,0.073436
759.375,0.044116
760.9375,0.020414
762.5,0.017948
764.0625,0.017674
765.625,0.022469
767.1875,0.03069
768.75,0.03069
770.3125,0.053707
771.875,0.339778
773.4375,0.556797
775,0.240037
776.5625,0.035896
778.125,0.023017
779.6875,0.026853
781.25,0.020962
782.8125,0.015345
784.375,0.024113
785.9375,0.027401
787.5,0.052337
789.0625,0.067682
790.625,0.03617
792.1875,0.025346
793.75,0.030005
795.3125,0.033293
796.875,0.026579
798.4375,0.022058
800,0.030005
801.5625,0.02562
803.125,0.027127
804.6875,0.044116
806.25,0.054803
807.8125,0.051241
809.375,0.040006
810.9375,0.029457
812.5,0.030964
814.0625,0.02425
815.625,0.024524
817.1875,0.030005
818.75,0.041376
820.3125,0.035896
821.875,0.02836
823.4375,0.023291
825,0.025894
826.5625,0.027949
828.125,0.018907
829.6875,0.02151
831.25,0.026853
832.8125,0.031786
834.375,0.040828
835.9375,0.04302
837.5,0.051241
839.0625,0.063023
840.625,0.0696
842.1875,0.054255
843.75,0.0348
845.3125,0.037266
846.875,0.075628
848.4375,0.0696
850,0.049597
851.5625,0.055351
853.125,0.041924
854.6875,0.043568
856.25,0.029183
857.8125,0.025346
859.375,0.018633
860.9375,0.020962
862.5,0.050145
864.0625,0.030005
865.625,0.022195
867.1875,0.048227
868.75,0.08604
870.3125,0.075628
871.875,0.035896
873.4375,0.040006
875,0.025894
876.5625,0.020414
878.125,0.024798
879.6875,0.016372
881.25,0.0174
882.8125,0.022469
884.375,0.044938
885.9375,0.133171
887.5,0.117826
889.0625,0.055351
890.625,0.02151
892.1875,0.018633
893.75,0.015345
895.3125,0.015345
896.875,0.021784
898.4375,0.023017
900,0.024798
901.5625,0.030005
903.125,0.02014
904.6875,0.02425
906.25,0.022743
907.8125,0.023017
909.375,0.014591
910.9375,0.020414
912.5,0.019181
914.0625,0.019181
915.625,0.018633
917.1875,0.028909
918.75,0.026305
920.3125,0.023291
921.875,0.029731
923.4375,0.020962
925,0.01692
926.5625,0.022469
928.125,0.029731
929.6875,0.024524
931.25,0.0174
932.8125,0.028909
934.375,0.031786
935.9375,0.11673
937.5,0.157832
939.0625,0.047678
940.625,0.025346
942.1875,0.01692
943.75,0.029183
945.3125,0.029457
946.875,0.025072
948.4375,0.02425
950,0.032745
951.5625,0.03891
953.125,0.029731
954.6875,0.023565
956.25,0.024113
957.8125,0.020414
959.375,0.035896
960.9375,0.061379
962.5,0.099193
964.0625,0.101385
965.625,0.07782
967.1875,0.07782
968.75,0.050693
970.3125,0.043568
971.875,0.027401
973.4375,0.022058
975,0.018359
976.5625,0.02425
978.125,0.023017
979.6875,0.016646
981.25,0.031512
982.8125,0.064119
984.375,0.04713
985.9375,0.024113
987.5,0.020003
989.0625,0.034252
990.625,0.020962
992.1875,0.017948
993.75,0.011029
995.3125,0.014112
996.875,0.014112
998.4375,0.016646
1000,0.025072
1001.563,0.024113
1003.125,0.018085
1004.688,0.018907
1006.25,0.019729
1007.813,0.015893
1009.375,0.059461
1010.938,0.143583
1012.5,0.100289
1014.063,0.025072
1015.625,0.026579
1017.188,0.024113
1018.75,0.022469
1020.313,0.018907
1021.875,0.025894
1023.438,0.017126
1025,0.018085
1026.563,0.014591
1028.125,0.009728
1029.688,0.019455
1031.25,0.031786
1032.813,0.035896
1034.375,0.021236
1035.938,0.014591
1037.5,0.009728
1039.063,0.017948
1040.625,0.023017
1042.188,0.026853
1043.75,0.028909
1045.313,0.025072
1046.875,0.03069
1048.438,0.027675
1050,0.021236
1051.563,0.026168
1053.125,0.019181
1054.688,0.019455
1056.25,0.023291
1057.813,0.035896
1059.375,0.023839
1060.938,0.028909
1062.5,0.055899
1064.063,0.046034
1065.625,0.031786
1067.188,0.032471
1068.75,0.029183
1070.313,0.023565
1071.875,0.0174
1073.438,0.038362
1075,0.083848
1076.563,0.07234
1078.125,0.048227
1079.688,0.045486
1081.25,0.065489
1082.813,0.040828
1084.375,0.049597
1085.938,0.070696
1087.5,0.031512
1089.063,0.052337
1090.625,0.040006
1092.188,0.029457
1093.75,0.04439
1095.313,0.057817
1096.875,0.03617
1098.438,0.030142
1100,0.096453
1101.563,0.104673
1103.125,0.052337
1104.688,0.03206
1106.25,0.030005
1107.813,0.03891
1109.375,0.048227
1110.938,0.061927
1112.5,0.026853
1114.063,0.008974
1115.625,0.023839
1117.188,0.026579
1118.75,0.015893
1120.313,0.020688
1121.875,0.022469
1123.438,0.033293
1125,0.040828
1126.563,0.040828
1128.125,0.030964
1129.688,0.043568
1131.25,0.037814
1132.813,0.027127
1134.375,0.02562
1135.938,0.026579
1137.5,0.045486
1139.063,0.031512
1140.625,0.03206
1142.188,0.02836
1143.75,0.037814
1145.313,0.036718
1146.875,0.028634
1148.438,0.048227
1150,0.033293
1151.563,0.02836
1153.125,0.040006
1154.688,0.037266
1156.25,0.057269
1157.813,0.266342
1159.375,0.710245
1160.938,0.523915
1162.5,0.102481
1164.063,0.051789
1165.625,0.052337
1167.188,0.041924
1168.75,0.030964
1170.313,0.053159
1171.875,0.055899
1173.438,0.113442
1175,0.245517
1176.563,0.143583
1178.125,0.030964
1179.688,0.030142
1181.25,0.050693
1182.813,0.04302
1184.375,0.031238
1185.938,0.033293
1187.5,0.026168
1189.063,0.040006
1190.625,0.0696
1192.188,0.058913
1193.75,0.032745
1195.313,0.029457
1196.875,0.025072
1198.438,0.031512
1200,0.035348
1201.563,0.043568
1203.125,0.029457
1204.688,0.029457
1206.25,0.030005
1207.813,0.071792
1209.375,0.092069
1210.938,0.0348
1212.5,0.022195
1214.063,0.030142
1215.625,0.030142
1217.188,0.02562
1218.75,0.017126
1220.313,0.020003
1221.875,0.036718
1223.438,0.073436
1225,0.064393
1226.563,0.040828
1228.125,0.040006
1229.688,0.039458
1231.25,0.023839
1232.813,0.056447
1234.375,0.070696
1235.938,0.028634
1237.5,0.029731
1239.063,0.037814
1240.625,0.03891
1242.188,0.022743
1243.75,0.018907
1245.313,0.022195
1246.875,0.041376
1248.438,0.157832
1250,0.188522
1251.563,0.068504
1253.125,0.036718
1254.688,0.103577
1256.25,0.221404
1257.813,0.133171
1259.375,0.041924
1260.938,0.035348
1262.5,0.029457
1264.063,0.041924
1265.625,0.03617
1267.188,0.026305
1268.75,0.0348
1270.313,0.026579
1271.875,0.030142
1273.438,0.036718
1275,0.046034
1276.563,0.048227
1278.125,0.03069
1279.688,0.035896
1281.25,0.030005
1282.813,0.035348
1284.375,0.028909
1285.938,0.030964
1287.5,0.034252
1289.063,0.057269
1290.625,0.048227
1292.188,0.0348
1293.75,0.033841
1295.313,0.036718
1296.875,0.037814
1298.438,0.035896
1300,0.073436
1301.563,0.093165
1303.125,0.068504
1304.688,0.057817
1306.25,0.08056
1307.813,0.098097
1309.375,0.094261
1310.938,0.057269
1312.5,0.068504
1314.063,0.066585
1315.625,0.056721
1317.188,0.055351
1318.75,0.0696
1320.313,0.103577
1321.875,0.190714
1323.438,0.462536
1325,0.42527
1326.563,0.405541
1328.125,0.249901
1329.688,0.064393
1331.25,0.082752
1332.813,0.094261
1334.375,0.095357
1335.938,0.073436
1337.5,0.059461
1339.063,0.081656
1340.625,0.055899
1342.188,0.048227
1343.75,0.056721
1345.313,0.068504
1346.875,0.08056
1348.438,0.104673
1350,0.177561
1351.563,0.196194
1353.125,0.149064
1354.688,0.061927
1356.25,0.070696
1357.813,0.060831
1359.375,0.057269
1360.938,0.03891
1362.5,0.051241
1364.063,0.052611
1365.625,0.084944
1367.188,0.111798
1368.75,0.088781
1370.313,0.054255
1371.875,0.052611
1373.438,0.073436
1375,0.149064
1376.563,0.18633
1378.125,0.074532
1379.688,0.044116
1381.25,0.061379
1382.813,0.055899
1384.375,0.048227
1385.938,0.068504
1387.5,0.081656
1389.063,0.061927
1390.625,0.056447
1392.188,0.044938
1393.75,0.049597
1395.313,0.043568
1396.875,0.111798
1398.438,0.172081
1400,0.202771
1401.563,0.179753
1403.125,0.083848
1404.688,0.054803
1406.25,0.0696
1407.813,0.053707
1409.375,0.048501
1410.938,0.068504
1412.5,0.151256
1414.063,0.128239
1415.625,0.042472
1417.188,0.056447
1418.75,0.049597
1420.313,0.054255
1421.875,0.048501
1423.438,0.058365
1425,0.106318
1426.563,0.084944
1428.125,0.060009
1429.688,0.049049
1431.25,0.051789
1432.813,0.057269
1434.375,0.044116
1435.938,0.030142
1437.5,0.04713
1439.063,0.053159
1440.625,0.028223
1442.188,0.04713
1443.75,0.141391
1445.313,0.217019
1446.875,0.177561
1448.438,0.745319
1450,1.148668
1451.563,0.480073
1453.125,0.076724
1454.688,0.0696
1456.25,0.050693
1457.813,0.031512
1459.375,0.043568
1460.938,0.098097
1462.5,0.093165
1464.063,0.074532
1465.625,0.100289
1467.188,0.074532
1468.75,0.051241
1470.313,0.056447
1471.875,0.113442
1473.438,0.094261
1475,0.120566
1476.563,0.059461
1478.125,0.058365
1479.688,0.08604
1481.25,0.094261
1482.813,0.064393
1484.375,0.08056
1485.938,0.190714
1487.5,0.41431
1489.063,0.212635
1490.625,0.102481
1492.188,0.114538
1493.75,0.092069
1495.313,0.082752
1496.875,0.146872
1498.438,0.348546
1500,0.298128
1501.563,0.104673
1503.125,0.065489
1504.688,0.063023
1506.25,0.057817
1507.813,0.073436
1509.375,0.110702
1510.938,0.080012
1512.5,0.093165
1514.063,0.120566
1515.625,0.081656
1517.188,0.066585
1518.75,0.08604
1520.313,0.071792
1521.875,0.056721
1523.438,0.047678
1525,0.042472
1526.563,0.128787
1528.125,0.137007
1529.688,0.123854
1531.25,0.151256
1532.813,0.163313
1534.375,0.372659
1535.938,0.587487
1537.5,0.293743
1539.063,0.235652
1540.625,0.282783
1542.188,0.167697
1543.75,0.355123
1545.313,1.3065
1546.875,1.657238
1548.438,0.613792
1550,0.282783
1551.563,0.194002
1553.125,0.198386
1554.688,0.196194
1556.25,0.221404
1557.813,0.282783
1559.375,1.157436
1560.938,3.998416
1562.5,4.103638
1564.063,1.096057
1565.625,0.420886
1567.188,0.256477
1568.75,0.196194
1570.313,0.151256
1571.875,0.302512
1573.438,0.282783
1575,0.235652
1576.563,0.207155
1578.125,0.122758
1579.688,0.16112
1581.25,0.146872
1582.813,0.130979
1584.375,0.128787
1585.938,0.359507
1587.5,0.784777
1589.063,0.519531
1590.625,0.157832
1592.188,0.121662
1593.75,0.112894
1595.313,0.202771
1596.875,0.157832
1598.438,0.112894
1600,0.128239
1601.563,0.137007
1603.125,0.124951
1604.688,0.096453
1606.25,0.095357
1607.813,0.106318
1609.375,0.115634
1610.938,0.143583
1612.5,0.270726
1614.063,0.339778
1615.625,0.123854
1617.188,0.056721
1618.75,0.128787
1620.313,0.302512
1621.875,0.320049
1623.438,0.169889
1625,0.214827
1626.563,0.223596
1628.125,0.190714
1629.688,0.14468
1631.25,0.117826
1632.813,0.129883
1634.375,0.462536
1635.938,0.894383
1637.5,0.475689
1639.063,0.181945
1640.625,0.274014
1642.188,0.640097
1643.75,0.662018
1645.313,0.192906
1646.875,0.114538
1648.438,0.133171
1650,0.16112
1651.563,0.179753
1653.125,0.118922
1654.688,0.127143
1656.25,0.104673
1657.813,0.167697
1659.375,0.231268
1660.938,0.192906
1662.5,0.137007
1664.063,0.092069
1665.625,0.143583
1667.188,0.133171
1668.75,0.098097
1670.313,0.110702
1671.875,0.097001
1673.438,0.093165
1675,0.153448
1676.563,0.10851
1678.125,0.095357
1679.688,0.105221
1681.25,0.074532
1682.813,0.061379
1684.375,0.044116
1685.938,0.07234
1687.5,0.118922
1689.063,0.133171
1690.625,0.153448
1692.188,0.172081
1693.75,0.104673
1695.313,0.046582
1696.875,0.041924
1698.438,0.074532
1700,0.103577
1701.563,0.07782
1703.125,0.084944
1704.688,0.080012
1706.25,0.084944
1707.813,0.087137
1709.375,0.120566
1710.938,0.105221
1712.5,0.074532
1714.063,0.07234
1715.625,0.043568
1717.188,0.070696
1718.75,0.07782
1720.313,0.092069
1721.875,0.063023
1723.438,0.095357
1725,0.179753
1726.563,0.16112
1728.125,0.066585
1729.688,0.074532
1731.25,0.113442
1732.813,0.067682
