Frecuencia(Hz),"	mm/Seg(PC)"
3.125,0.596255
4.6875,0.578718
6.25,0.587487
7.8125,0.398965
9.375,0.50857
10.9375,0.635713
12.5,0.578718
14.0625,0.679555
15.625,0.942609
17.1875,0.5283
18.75,0.335393
20.3125,0.328817
21.875,0.34197
23.4375,0.207155
25,0.184138
26.5625,0.164409
28.125,0.163313
29.6875,0.254285
31.25,0.254285
32.8125,0.188522
34.375,0.166601
35.9375,0.213731
37.5,0.250997
39.0625,0.19181
40.625,0.26963
42.1875,0.247709
43.75,0.15016
45.3125,0.23894
46.875,1.42049
48.4375,6.383437
50,6.067772
51.5625,1.117978
53.125,0.203867
54.6875,0.15564
56.25,0.130431
57.8125,0.458152
59.375,0.5283
60.9375,0.199482
62.5,0.175369
64.0625,0.491034
65.625,0.357315
67.1875,0.098097
68.75,0.101933
70.3125,0.083848
71.875,0.067408
73.4375,0.210443
75,0.229076
76.5625,0.084944
78.125,0.093165
79.6875,0.090973
81.25,0.082204
82.8125,0.083848
84.375,0.097549
85.9375,0.092069
87.5,0.059735
89.0625,0.184138
90.625,0.153448
92.1875,0.10851
93.75,0.106866
95.3125,0.640097
96.875,1.069752
98.4375,0.471305
100,0.15564
101.5625,0.064393
103.125,0.065215
104.6875,0.110154
106.25,0.116182
107.8125,0.085492
109.375,0.083848
110.9375,0.063571
112.5,0.067408
114.0625,0.066037
115.625,0.059735
117.1875,0.059735
118.75,0.041102
120.3125,0.040006
121.875,0.045486
123.4375,0.057269
125,0.060557
126.5625,0.04439
128.125,0.043568
129.6875,0.076724
131.25,0.08056
132.8125,0.11125
134.375,0.141391
135.9375,0.094809
137.5,0.071244
139.0625,0.071244
140.625,0.059735
142.1875,0.101933
143.75,0.31128
145.3125,0.370467
146.875,1.227584
148.4375,1.157436
150,0.477881
151.5625,0.440615
153.125,0.169889
154.6875,0.090425
156.25,0.14468
157.8125,0.217019
159.375,0.250997
160.9375,0.350738
162.5,0.272918
164.0625,0.196194
165.625,0.217019
167.1875,0.245517
168.75,0.370467
170.3125,0.484457
171.875,0.501994
173.4375,0.398965
175,0.31128
176.5625,0.379236
178.125,0.38362
179.6875,0.254285
181.25,0.196194
182.8125,0.180849
184.375,0.149064
185.9375,0.128787
187.5,0.123854
189.0625,0.122758
190.625,0.156736
192.1875,0.291551
193.75,0.407733
195.3125,0.189618
196.875,0.180849
198.4375,0.18633
200,0.379236
201.5625,0.207155
203.125,0.090425
204.6875,0.044664
206.25,0.061379
207.8125,0.098097
209.375,0.076724
210.9375,0.070696
212.5,0.076176
214.0625,0.067408
215.625,0.050145
217.1875,0.042472
218.75,0.03343
220.3125,0.040828
221.875,0.055077
223.4375,0.047952
225,0.040006
226.5625,0.051789
228.125,0.030279
229.6875,0.025894
231.25,0.045212
232.8125,0.032608
234.375,0.036444
235.9375,0.036718
237.5,0.048775
239.0625,0.058913
240.625,0.041924
242.1875,0.074532
243.75,0.123854
245.3125,0.298128
246.875,0.254285
248.4375,0.110154
250,0.042746
251.5625,0.04439
253.125,0.051789
254.6875,0.043842
256.25,0.055625
257.8125,0.087137
259.375,0.08056
260.9375,0.078368
262.5,0.081656
264.0625,0.047404
265.625,0.049049
267.1875,0.051789
268.75,0.059735
270.3125,0.046582
271.875,0.049871
273.4375,0.062749
275,0.061379
276.5625,0.047952
278.125,0.035622
279.6875,0.054255
281.25,0.048775
282.8125,0.033019
284.375,0.034115
285.9375,0.054255
287.5,0.076176
289.0625,0.26963
290.625,0.306896
292.1875,0.087685
293.75,0.055077
295.3125,0.061379
296.875,0.070696
298.4375,0.089329
300,0.116182
301.5625,0.052611
303.125,0.043842
304.6875,0.033704
306.25,0.053433
307.8125,0.057269
309.375,0.030964
310.9375,0.62256
312.5,1.174973
314.0625,0.56995
315.625,0.043842
317.1875,0.029457
318.75,0.030964
320.3125,0.039732
321.875,0.085492
323.4375,0.061927
325,0.025483
326.5625,0.03343
328.125,0.040828
329.6875,0.030279
331.25,0.024387
332.8125,0.014523
334.375,0.021921
335.9375,0.027127
337.5,0.061927
339.0625,0.041924
340.625,0.029868
342.1875,0.038088
343.75,0.042472
345.3125,0.03617
346.875,0.020414
348.4375,0.019592
350,0.025483
351.5625,0.026716
353.125,0.033704
354.6875,0.040006
356.25,0.034115
357.8125,0.04302
359.375,0.026305
360.9375,0.020825
362.5,0.018085
364.0625,0.022743
365.625,0.033019
367.1875,0.038362
368.75,0.03891
370.3125,0.06823
371.875,0.059735
373.4375,0.032197
375,0.033704
376.5625,0.03617
378.125,0.043842
379.6875,0.046034
381.25,0.047952
382.8125,0.125499
384.375,0.657634
385.9375,3.121571
387.5,3.06896
389.0625,0.635713
390.625,0.11125
392.1875,0.038362
393.75,0.058913
395.3125,0.040006
396.875,0.026716
398.4375,0.043842
400,0.045486
401.5625,0.043568
403.125,0.04165
404.6875,0.028223
406.25,0.042472
407.8125,0.050967
409.375,0.043568
410.9375,0.040828
412.5,0.04439
414.0625,0.054255
415.625,0.04028
417.1875,0.029046
418.75,0.055625
420.3125,0.053433
421.875,0.039732
423.4375,0.033019
425,0.026305
426.5625,0.03343
428.125,0.040828
429.6875,0.043568
431.25,0.037266
432.8125,0.045212
434.375,0.04302
435.9375,0.04713
437.5,0.08056
439.0625,0.079464
440.625,0.061379
442.1875,0.061379
443.75,0.069874
445.3125,0.060557
446.875,0.087685
448.4375,0.097549
450,0.076724
451.5625,0.08056
453.125,0.065215
454.6875,0.062749
456.25,0.049323
457.8125,0.080012
459.375,0.072888
460.9375,0.08056
462.5,0.081656
464.0625,0.112894
465.625,0.139747
467.1875,0.167697
468.75,0.181945
470.3125,0.158928
471.875,0.15016
473.4375,0.134815
475,0.117826
476.5625,0.116182
478.125,0.105221
479.6875,0.098645
481.25,0.260862
482.8125,0.515147
484.375,0.451576
485.9375,0.257573
487.5,0.166601
489.0625,0.134815
490.625,0.133719
492.1875,0.101933
493.75,0.105221
495.3125,0.132075
496.875,0.149064
498.4375,0.146872
500,0.158928
501.5625,0.16112
503.125,0.149064
504.6875,0.089329
506.25,0.07782
507.8125,0.071244
509.375,0.071244
510.9375,0.093165
512.5,0.092617
514.0625,0.149064
515.625,0.26415
517.1875,0.16112
518.75,0.079464
520.3125,0.0833
521.875,0.10851
523.4375,0.083848
525,0.08604
526.5625,0.103577
528.125,0.142487
529.6875,0.10851
531.25,0.062749
532.8125,0.058091
534.375,0.149064
535.9375,0.139747
537.5,0.054255
539.0625,0.047404
540.625,0.087137
542.1875,0.087137
543.75,0.052611
545.3125,0.076724
546.875,0.092069
548.4375,0.078368
550,0.166601
551.5625,0.174273
553.125,0.100289
554.6875,0.088781
556.25,0.099741
557.8125,0.080012
559.375,0.0833
560.9375,0.10851
562.5,0.100289
564.0625,0.105221
565.625,0.094261
567.1875,0.093165
568.75,0.103577
570.3125,0.089329
571.875,0.055625
573.4375,0.065215
575,0.069874
576.5625,0.087137
578.125,0.142487
579.6875,0.232364
581.25,0.169889
582.8125,0.105221
584.375,0.101933
585.9375,0.117826
587.5,0.07782
589.0625,0.085492
590.625,0.083848
592.1875,0.0833
593.75,0.07508
595.3125,0.079464
596.875,0.110154
598.4375,0.100289
600,0.074532
601.5625,0.0833
603.125,0.095905
604.6875,0.071244
606.25,0.056447
607.8125,0.055625
609.375,0.053433
610.9375,0.055625
612.5,0.064393
614.0625,0.082204
615.625,0.071244
617.1875,0.055625
618.75,0.04439
620.3125,0.061379
621.875,0.095905
623.4375,0.88123
625,1.560785
626.5625,0.740935
628.125,0.106866
629.6875,0.062749
631.25,0.061379
632.8125,0.072888
634.375,0.048775
635.9375,0.049049
637.5,0.048775
639.0625,0.055625
640.625,0.053433
642.1875,0.04028
643.75,0.067408
645.3125,0.067408
646.875,0.043568
648.4375,0.04302
650,0.054255
651.5625,0.061379
653.125,0.044664
654.6875,0.032608
656.25,0.049871
657.8125,0.061927
659.375,0.034526
660.9375,0.025894
662.5,0.035622
664.0625,0.038362
665.625,0.03754
667.1875,0.033704
668.75,0.030279
670.3125,0.032197
671.875,0.031375
673.4375,0.032608
675,0.069874
676.5625,0.122758
678.125,0.094809
679.6875,0.039732
681.25,0.03891
682.8125,0.056447
684.375,0.04165
685.9375,0.028223
687.5,0.027538
689.0625,0.028223
690.625,0.042472
692.1875,0.063571
693.75,0.064393
695.3125,0.044664
696.875,0.047952
698.4375,0.117826
700,0.106866
701.5625,0.040828
703.125,0.048227
704.6875,0.038088
706.25,0.027127
707.8125,0.040006
709.375,0.054255
710.9375,0.033019
712.5,0.029457
714.0625,0.046582
715.625,0.045212
717.1875,0.019592
718.75,0.015687
720.3125,0.02151
721.875,0.037266
723.4375,0.095905
725,0.098645
726.5625,0.03617
728.125,0.039732
729.6875,0.037266
731.25,0.04028
732.8125,0.041102
734.375,0.027538
735.9375,0.032197
737.5,0.041924
739.0625,0.040006
740.625,0.050967
742.1875,0.046034
743.75,0.024661
745.3125,0.024661
746.875,0.03617
748.4375,0.03617
750,0.021236
751.5625,0.032608
753.125,0.027127
754.6875,0.035348
756.25,0.050967
757.8125,0.036444
759.375,0.032197
760.9375,0.041102
762.5,0.034115
764.0625,0.043568
765.625,0.051789
767.1875,0.056447
768.75,0.03891
770.3125,0.128787
771.875,1.201279
773.4375,2.262262
775,1.104826
776.5625,0.138103
778.125,0.067408
779.6875,0.04713
781.25,0.038362
782.8125,0.034115
784.375,0.040006
785.9375,0.069052
787.5,0.094809
789.0625,0.082204
790.625,0.054255
792.1875,0.051789
793.75,0.04713
795.3125,0.045486
796.875,0.050967
798.4375,0.046308
800,0.065215
801.5625,0.064393
803.125,0.043568
804.6875,0.064393
806.25,0.069052
807.8125,0.061927
809.375,0.052611
810.9375,0.03754
812.5,0.032608
814.0625,0.040006
815.625,0.035348
817.1875,0.025483
818.75,0.042472
820.3125,0.050145
821.875,0.114538
823.4375,0.10851
825,0.050967
826.5625,0.050967
828.125,0.046308
829.6875,0.040006
831.25,0.055077
832.8125,0.055077
834.375,0.046582
835.9375,0.062749
837.5,0.0833
839.0625,0.058091
840.625,0.049049
842.1875,0.04713
843.75,0.035348
845.3125,0.026305
846.875,0.032197
848.4375,0.058913
850,0.053433
851.5625,0.053433
853.125,0.076724
854.6875,0.072888
856.25,0.047952
857.8125,0.04302
859.375,0.046034
860.9375,0.070696
862.5,0.08604
864.0625,0.087137
865.625,0.07782
867.1875,0.053433
868.75,0.112894
870.3125,0.149064
871.875,0.079464
873.4375,0.050967
875,0.03343
876.5625,0.047952
878.125,0.048227
879.6875,0.030964
881.25,0.04165
882.8125,0.045486
884.375,0.076176
885.9375,0.26415
887.5,0.257573
889.0625,0.098097
890.625,0.041102
892.1875,0.04713
893.75,0.03069
895.3125,0.024661
896.875,0.042746
898.4375,0.036718
900,0.020825
901.5625,0.027127
903.125,0.028223
904.6875,0.03069
906.25,0.034526
907.8125,0.036444
909.375,0.026716
910.9375,0.020825
912.5,0.027812
914.0625,0.033019
915.625,0.025483
917.1875,0.017674
918.75,0.020414
920.3125,0.025483
921.875,0.025072
923.4375,0.025894
925,0.033019
926.5625,0.033019
928.125,0.037266
929.6875,0.037266
931.25,0.03754
932.8125,0.04028
934.375,0.039732
935.9375,0.090425
937.5,0.160024
939.0625,0.080012
940.625,0.031375
942.1875,0.025072
943.75,0.018359
945.3125,0.011372
946.875,0.020825
948.4375,0.026305
950,0.038362
951.5625,0.032608
953.125,0.023976
954.6875,0.025483
956.25,0.025894
957.8125,0.020825
959.375,0.031786
960.9375,0.033019
962.5,0.061379
964.0625,0.112894
965.625,0.149064
967.1875,0.152352
968.75,0.069052
970.3125,0.063571
971.875,0.060557
973.4375,0.061927
975,0.037266
976.5625,0.044664
978.125,0.055625
979.6875,0.051789
981.25,0.063571
982.8125,0.098097
984.375,0.081656
985.9375,0.053433
987.5,0.039732
989.0625,0.032197
990.625,0.034115
992.1875,0.03617
993.75,0.048775
995.3125,0.04028
996.875,0.03617
998.4375,0.047952
1000,0.064393
1001.563,0.052611
1003.125,0.049049
1004.688,0.034526
1006.25,0.025483
1007.813,0.044664
1009.375,0.105221
1010.938,0.368275
1012.5,0.328817
1014.063,0.092617
1015.625,0.03343
1017.188,0.034526
1018.75,0.036444
1020.313,0.03754
1021.875,0.046308
1023.438,0.026716
1025,0.047404
1026.563,0.04439
1028.125,0.03891
1029.688,0.049323
1031.25,0.070696
1032.813,0.046582
1034.375,0.027127
1035.938,0.030964
1037.5,0.028223
1039.063,0.028634
1040.625,0.027127
1042.188,0.027812
1043.75,0.020825
1045.313,0.03343
1046.875,0.042746
1048.438,0.03617
1050,0.03617
1051.563,0.027812
1053.125,0.028634
1054.688,0.019592
1056.25,0.02151
1057.813,0.030964
1059.375,0.049323
1060.938,0.058913
1062.5,0.084944
1064.063,0.090425
1065.625,0.032608
1067.188,0.025894
1068.75,0.02151
1070.313,0.020003
1071.875,0.021236
1073.438,0.028223
1075,0.031375
1076.563,0.027127
1078.125,0.022332
1079.688,0.028223
1081.25,0.044664
1082.813,0.036718
1084.375,0.026716
1085.938,0.027127
1087.5,0.021236
1089.063,0.049871
1090.625,0.047404
1092.188,0.019181
1093.75,0.018359
1095.313,0.019181
1096.875,0.012536
1098.438,0.019592
1100,0.036444
1101.563,0.046582
1103.125,0.030279
1104.688,0.021236
1106.25,0.013769
1107.813,0.019592
1109.375,0.028634
1110.938,0.053433
1112.5,0.025072
1114.063,0.012947
1115.625,0.018085
1117.188,0.021921
1118.75,0.012947
1120.313,0.014934
1121.875,0.017674
1123.438,0.015687
1125,0.013769
1126.563,0.023154
1128.125,0.031786
1129.688,0.032197
1131.25,0.029046
1132.813,0.020003
1134.375,0.019181
1135.938,0.021236
1137.5,0.02151
1139.063,0.021921
1140.625,0.025894
1142.188,0.02151
1143.75,0.025483
1145.313,0.027127
1146.875,0.023565
1148.438,0.03617
1150,0.035622
1151.563,0.023565
1153.125,0.025072
1154.688,0.027812
1156.25,0.044664
1157.813,0.14468
1159.375,0.596255
1160.938,0.558989
1162.5,0.136459
1164.063,0.044664
1165.625,0.020414
1167.188,0.025072
1168.75,0.028634
1170.313,0.023565
1171.875,0.04713
1173.438,0.099741
1175,0.31128
1176.563,0.272918
1178.125,0.08056
1179.688,0.036718
1181.25,0.034526
1182.813,0.028634
1184.375,0.034937
1185.938,0.035348
1187.5,0.030964
1189.063,0.035622
1190.625,0.027812
1192.188,0.029457
1193.75,0.026305
1195.313,0.022332
1196.875,0.029868
1198.438,0.037266
1200,0.030964
1201.563,0.044664
1203.125,0.03891
1204.688,0.028223
1206.25,0.038088
1207.813,0.11125
1209.375,0.189618
1210.938,0.088781
1212.5,0.031786
1214.063,0.016098
1215.625,0.022332
1217.188,0.020003
1218.75,0.02151
1220.313,0.02151
1221.875,0.032197
1223.438,0.079464
1225,0.079464
1226.563,0.036718
1228.125,0.019181
1229.688,0.016509
1231.25,0.031375
1232.813,0.040828
1234.375,0.050145
1235.938,0.041924
1237.5,0.031786
1239.063,0.034937
1240.625,0.034937
1242.188,0.027812
1243.75,0.023565
1245.313,0.033704
1246.875,0.046308
1248.438,0.282783
1250,0.444999
1251.563,0.232364
1253.125,0.063571
1254.688,0.048227
1256.25,0.092069
1257.813,0.065215
1259.375,0.027812
1260.938,0.03069
1262.5,0.036444
1264.063,0.031375
1265.625,0.029457
1267.188,0.019592
1268.75,0.025072
1270.313,0.032197
1271.875,0.039732
1273.438,0.065215
1275,0.066859
1276.563,0.07234
1278.125,0.04439
1279.688,0.035622
1281.25,0.025483
1282.813,0.018085
1284.375,0.017674
1285.938,0.021236
1287.5,0.040006
1289.063,0.048775
1290.625,0.025894
1292.188,0.022332
1293.75,0.024661
1295.313,0.026716
1296.875,0.027812
1298.438,0.028223
1300,0.030964
1301.563,0.044664
1303.125,0.038362
1304.688,0.018359
1306.25,0.025072
1307.813,0.022332
1309.375,0.029868
1310.938,0.029868
1312.5,0.021921
1314.063,0.038362
1315.625,0.029457
1317.188,0.021236
1318.75,0.023565
1320.313,0.023976
1321.875,0.037266
1323.438,0.106866
1325,0.092069
1326.563,0.092069
1328.125,0.082204
1329.688,0.032197
1331.25,0.023154
1332.813,0.016852
1334.375,0.023154
1335.938,0.022743
1337.5,0.027127
1339.063,0.029457
1340.625,0.026305
1342.188,0.021236
1343.75,0.016852
1345.313,0.011372
1346.875,0.019181
1348.438,0.025894
1350,0.033019
1351.563,0.033019
1353.125,0.050145
1354.688,0.039732
1356.25,0.014523
1357.813,0.021921
1359.375,0.023565
1360.938,0.017674
1362.5,0.023976
1364.063,0.030279
1365.625,0.021236
1367.188,0.018359
1368.75,0.022743
1370.313,0.016852
1371.875,0.017263
1373.438,0.020825
1375,0.027812
1376.563,0.035622
1378.125,0.027127
1379.688,0.01877
1381.25,0.015345
1382.813,0.021236
1384.375,0.014112
1385.938,0.020003
1387.5,0.016509
1389.063,0.02151
1390.625,0.021921
1392.188,0.022743
1393.75,0.027538
1395.313,0.026716
1396.875,0.133719
1398.438,0.207155
1400,0.090973
1401.563,0.03343
1403.125,0.017674
1404.688,0.025072
1406.25,0.040828
1407.813,0.035348
1409.375,0.029046
1410.938,0.026305
1412.5,0.028634
1414.063,0.03069
1415.625,0.021236
1417.188,0.020414
1418.75,0.019181
1420.313,0.019592
1421.875,0.023154
1423.438,0.028223
1425,0.031375
1426.563,0.027812
1428.125,0.026716
1429.688,0.024661
1431.25,0.021921
1432.813,0.029868
1434.375,0.029868
1435.938,0.020825
1437.5,0.012536
1439.063,0.017674
1440.625,0.016098
1442.188,0.020414
1443.75,0.021921
1445.313,0.047404
1446.875,0.040006
1448.438,0.069052
1450,0.139747
1451.563,0.084944
1453.125,0.027538
1454.688,0.022743
1456.25,0.020825
1457.813,0.018085
1459.375,0.018359
1460.938,0.028634
1462.5,0.037266
1464.063,0.03617
1465.625,0.049049
1467.188,0.035622
1468.75,0.030279
1470.313,0.020825
1471.875,0.046308
1473.438,0.052611
1475,0.030964
1476.563,0.029868
1478.125,0.030279
1479.688,0.023154
1481.25,0.023976
1482.813,0.03069
1484.375,0.027538
1485.938,0.045212
1487.5,0.117826
1489.063,0.101933
1490.625,0.038362
1492.188,0.028634
1493.75,0.033019
1495.313,0.026305
1496.875,0.067408
1498.438,0.080012
1500,0.061927
1501.563,0.04165
1503.125,0.039184
1504.688,0.032608
1506.25,0.033019
1507.813,0.028223
1509.375,0.027812
1510.938,0.04439
1512.5,0.061379
1514.063,0.059735
1515.625,0.027538
1517.188,0.027127
1518.75,0.026716
1520.313,0.027812
1521.875,0.029457
1523.438,0.034937
1525,0.041924
1526.563,0.038088
1528.125,0.044664
1529.688,0.035348
1531.25,0.023976
1532.813,0.04165
1534.375,0.055625
1535.938,0.122758
1537.5,0.087137
1539.063,0.049871
1540.625,0.06823
1542.188,0.08604
1543.75,0.079464
1545.313,0.370467
1546.875,0.666403
1548.438,0.355123
1550,0.092069
1551.563,0.063571
1553.125,0.059735
1554.688,0.058913
1556.25,0.03754
1557.813,0.082204
1559.375,0.174273
1560.938,0.670787
1562.5,0.990836
1564.063,0.50857
1565.625,0.15564
1567.188,0.059735
1568.75,0.058091
1570.313,0.050145
1571.875,0.092617
1573.438,0.117826
1575,0.070696
1576.563,0.058913
1578.125,0.053433
1579.688,0.042746
1581.25,0.040006
1582.813,0.049871
1584.375,0.06823
1585.938,0.082204
1587.5,0.245517
1589.063,0.242229
1590.625,0.098097
1592.188,0.058091
1593.75,0.084944
1595.313,0.101933
1596.875,0.092069
1598.438,0.07508
1600,0.071244
1601.563,0.047404
1603.125,0.04302
1604.688,0.049871
1606.25,0.049049
1607.813,0.04165
1609.375,0.08604
1610.938,0.087137
1612.5,0.095905
1614.063,0.170985
1615.625,0.117826
1617.188,0.056447
1618.75,0.041924
1620.313,0.069874
1621.875,0.090973
1623.438,0.0833
1625,0.092069
1626.563,0.130431
1628.125,0.082204
1629.688,0.074532
1631.25,0.092069
1632.813,0.110154
1634.375,0.149064
1635.938,0.434039
1637.5,0.361699
1639.063,0.15016
1640.625,0.090973
1642.188,0.160024
1643.75,0.245517
1645.313,0.139747
1646.875,0.055077
1648.438,0.056447
1650,0.069874
1651.563,0.105221
1653.125,0.096453
1654.688,0.07782
1656.25,0.07782
1657.813,0.101933
1659.375,0.094261
1660.938,0.090973
1662.5,0.149064
1664.063,0.085492
1665.625,0.057269
1667.188,0.07234
1668.75,0.061927
1670.313,0.125499
1671.875,0.141391
1673.438,0.079464
1675,0.139747
1676.563,0.15016
1678.125,0.090973
1679.688,0.067408
1681.25,0.071244
1682.813,0.0833
1684.375,0.080012
1685.938,0.089329
1687.5,0.089329
1689.063,0.123854
1690.625,0.207155
1692.188,0.210443
1693.75,0.128787
1695.313,0.116182
1696.875,0.080012
1698.438,0.057269
1700,0.082204
1701.563,0.101933
1703.125,0.08056
1704.688,0.072888
1706.25,0.070696
1707.813,0.046034
1709.375,0.098645
1710.938,0.145776
1712.5,0.136459
1714.063,0.14468
1715.625,0.087685
1717.188,0.100289
1718.75,0.085492
1720.313,0.199482
1721.875,0.164409
1723.438,0.103577
1725,0.11125
1726.563,0.15564
1728.125,0.090425
1729.688,0.090973
1731.25,0.076724
1732.813,0.099741
